Wavenumber,Intensity
400.6888,83.471605
402.5525,83.435377
404.4162,84.995025
406.2798,84.582063
408.1435,83.871143
410.0072,82.450482
411.8708,82.357404
413.7345,83.284902
415.5982,84.443478
417.4618,84.838075
419.3255,84.651145
421.1892,83.189605
423.0528,82.825635
424.9165,82.842227
426.7802,83.431571
428.6439,83.587813
430.5075,83.839744
432.3712,83.546467
434.2349,83.890207
436.0985,83.948189
437.9622,83.574596
439.8259,83.209309
441.6895,83.491512
443.5532,83.471727
445.4169,83.419758
447.2805,83.636164
449.1442,83.945121
451.0079,84.000164
452.8715,84.176351
454.7352,83.971519
456.5989,83.693940
458.4626,83.585939
460.3262,83.939163
462.1899,84.172096
464.0536,84.307396
465.9172,84.188819
467.7809,84.264158
469.6446,84.383368
471.5082,84.406899
473.3719,84.325106
475.2356,84.422497
477.0992,84.499154
478.9629,84.394163
480.8266,84.368948
482.6902,84.636404
484.5539,84.551810
486.4176,84.408894
488.2813,84.547023
490.1449,84.609414
492.0086,84.640663
493.8723,84.867568
495.7359,84.879124
497.5996,84.868123
499.4633,84.849381
501.3269,84.948250
503.1906,85.040304
505.0543,85.108666
506.9179,85.085837
508.7816,85.041166
510.6453,85.005617
512.5090,85.071866
514.3726,85.039817
516.2363,85.216689
518.1000,85.542224
519.9636,85.657502
521.8273,85.680709
523.6910,85.592275
525.5546,85.237355
527.4183,85.307776
529.2820,85.633721
531.1456,86.011263
533.0093,86.412842
534.8730,86.481747
536.7366,86.170105
538.6003,85.939741
540.4640,85.929920
542.3277,86.470305
544.1913,87.141248
546.0550,87.417406
547.9187,87.201606
549.7823,86.765037
551.6460,86.636667
553.5097,87.078042
555.3733,87.661777
557.2370,88.045021
559.1007,88.053127
560.9643,87.824190
562.8280,87.656527
564.6917,87.772699
566.5554,87.908331
568.4190,88.004500
570.2827,88.091845
572.1464,88.135173
574.0100,87.922011
575.8737,87.750166
577.7374,87.724585
579.6010,87.757767
581.4647,87.789601
583.3284,87.893122
585.1920,87.874831
587.0557,87.776525
588.9194,87.762321
590.7830,87.825532
592.6467,87.833023
594.5104,87.893845
596.3741,87.969073
598.2377,87.995741
600.1014,87.984072
601.9651,87.948855
603.8287,87.939729
605.6924,87.906297
607.5561,87.938611
609.4197,87.999136
611.2834,87.993596
613.1471,88.022172
615.0107,88.099114
616.8744,88.122493
618.7381,88.132843
620.6017,88.172874
622.4654,88.182489
624.3291,88.156988
626.1928,88.170295
628.0564,88.287515
629.9201,88.280551
631.7838,88.244313
633.6474,88.281600
635.5111,88.339762
637.3748,88.346757
639.2384,88.367390
641.1021,88.406023
642.9658,88.464831
644.8294,88.478847
646.6931,88.500125
648.5568,88.573431
650.4205,88.618274
652.2841,88.640066
654.1478,88.721586
656.0115,88.703085
657.8751,88.629272
659.7388,88.620472
661.6025,88.675906
663.4661,88.703581
665.3298,88.785291
667.1935,88.831640
669.0571,88.784602
670.9208,88.826376
672.7845,88.881000
674.6481,88.854315
676.5118,88.875460
678.3755,88.924199
680.2392,88.990857
682.1028,89.031232
683.9665,89.082152
685.8302,89.088007
687.6938,89.083148
689.5575,89.091461
691.4212,89.098132
693.2848,89.116755
695.1485,89.159776
697.0122,89.190184
698.8758,89.213473
700.7395,89.216307
702.6032,89.219093
704.4669,89.231480
706.3305,89.261152
708.1942,89.288860
710.0579,89.362408
711.9215,89.353325
713.7852,89.324871
715.6489,89.347288
717.5125,89.420739
719.3762,89.444107
721.2399,89.448007
723.1035,89.507811
724.9672,89.534905
726.8309,89.530392
728.6945,89.559013
730.5582,89.573516
732.4219,89.586338
734.2856,89.595871
736.1492,89.615851
738.0129,89.637797
739.8766,89.673885
741.7402,89.745787
743.6039,89.765584
745.4676,89.713399
747.3312,89.701024
749.1949,89.705562
751.0586,89.724181
752.9222,89.762873
754.7859,89.772068
756.6496,89.749845
758.5132,89.746877
760.3769,89.752602
762.2406,89.764795
764.1043,89.789692
765.9679,89.804206
767.8316,89.803356
769.6953,89.800041
771.5589,89.817936
773.4226,89.837079
775.2863,89.851156
777.1499,89.836116
779.0136,89.827382
780.8773,89.843854
782.7409,89.867939
784.6046,89.874345
786.4683,89.872659
788.3320,89.903070
790.1956,89.961089
792.0593,89.966113
793.9230,89.915747
795.7866,89.891393
797.6503,89.919828
799.5140,89.937630
801.3776,89.963729
803.2413,90.023504
805.1050,90.042051
806.9686,90.013806
808.8323,89.994841
810.6960,90.020069
812.5596,90.026322
814.4233,90.056004
816.2870,90.114389
818.1507,90.124897
820.0143,90.100087
821.8780,90.089217
823.7417,90.096635
825.6053,90.115266
827.4690,90.166627
829.3327,90.188259
831.1963,90.207084
833.0600,90.197704
834.9237,90.179585
836.7873,90.217056
838.6510,90.245238
840.5147,90.232482
842.3784,90.224364
844.2420,90.264817
846.1057,90.265466
847.9694,90.243076
849.8330,90.251236
851.6967,90.295927
853.5604,90.325320
855.4240,90.337942
857.2877,90.341225
859.1514,90.324200
861.0150,90.328733
862.8787,90.348564
864.7424,90.361691
866.6060,90.376649
868.4697,90.394368
870.3334,90.401274
872.1971,90.405337
874.0607,90.416685
875.9244,90.442972
877.7881,90.477207
879.6517,90.483569
881.5154,90.510380
883.3791,90.548652
885.2427,90.543060
887.1064,90.534390
888.9701,90.533602
890.8337,90.539440
892.6974,90.543186
894.5611,90.536786
896.4247,90.564345
898.2884,90.586408
900.1521,90.606467
902.0158,90.656128
903.8794,90.697529
905.7431,90.697945
907.6068,90.696056
909.4704,90.702742
911.3341,90.725860
913.1978,90.747118
915.0614,90.762363
916.9251,90.774719
918.7888,90.781443
920.6524,90.782546
922.5161,90.779507
924.3798,90.799780
926.2435,90.809818
928.1071,90.796647
929.9708,90.803720
931.8345,90.837612
933.6981,90.856487
935.5618,90.842244
937.4255,90.841154
939.2891,90.825939
941.1528,90.824364
943.0165,90.828642
944.8801,90.815474
946.7438,90.820226
948.6075,90.837304
950.4711,90.825580
952.3348,90.810335
954.1985,90.814944
956.0622,90.823165
957.9258,90.806441
959.7895,90.811128
961.6532,90.819506
963.5168,90.817625
965.3805,90.795485
967.2442,90.809034
969.1078,90.841637
970.9715,90.841657
972.8352,90.841797
974.6988,90.832727
976.5625,90.827652
978.4262,90.837852
980.2899,90.832092
982.1535,90.809130
984.0172,90.808668
985.8809,90.844257
987.7445,90.854317
989.6082,90.836105
991.4719,90.846657
993.3355,90.857587
995.1992,90.853148
997.0629,90.858728
998.9265,90.885435
1000.7902,90.907387
1002.6539,90.904931
1004.5175,90.893212
1006.3812,90.895355
1008.2449,90.889891
1010.1086,90.896851
1011.9722,90.917277
1013.8359,90.921514
1015.6996,90.919646
1017.5632,90.936360
1019.4269,90.932485
1021.2906,90.946549
1023.1542,90.983609
1025.0179,90.994313
1026.8816,90.996401
1028.7452,91.004408
1030.6089,91.024846
1032.4726,91.056677
1034.3362,91.104489
1036.1999,91.146026
1038.0636,91.152149
1039.9273,91.153129
1041.7909,91.160990
1043.6546,91.183640
1045.5183,91.225991
1047.3819,91.228422
1049.2456,91.223598
1051.1093,91.257894
1052.9729,91.283244
1054.8366,91.287081
1056.7003,91.310313
1058.5639,91.341316
1060.4276,91.371270
1062.2913,91.421405
1064.1550,91.472414
1066.0186,91.474956
1067.8823,91.471781
1069.7460,91.504226
1071.6096,91.549197
1073.4733,91.587235
1075.3370,91.614899
1077.2006,91.639311
1079.0643,91.651892
1080.9280,91.663735
1082.7916,91.688419
1084.6553,91.708027
1086.5190,91.751811
1088.3826,91.786298
1090.2463,91.797744
1092.1100,91.804098
1093.9737,91.816780
1095.8373,91.827152
1097.7010,91.833967
1099.5647,91.840895
1101.4283,91.845383
1103.2920,91.847580
1105.1557,91.844541
1107.0193,91.847479
1108.8830,91.873875
1110.7467,91.907526
1112.6103,91.934006
1114.4740,91.951748
1116.3377,91.975538
1118.2014,91.999584
1120.0650,92.047405
1121.9287,92.083435
1123.7924,92.081149
1125.6560,92.090322
1127.5197,92.137032
1129.3834,92.162870
1131.2470,92.159936
1133.1107,92.194901
1134.9744,92.227060
1136.8380,92.223713
1138.7017,92.185704
1140.5654,92.175377
1142.4290,92.218183
1144.2927,92.225025
1146.1564,92.208066
1148.0201,92.220306
1149.8837,92.212163
1151.7474,92.188957
1153.6111,92.175679
1155.4747,92.148213
1157.3384,92.144949
1159.2021,92.174042
1161.0657,92.209876
1162.9294,92.226618
1164.7931,92.226935
1166.6567,92.246110
1168.5204,92.285138
1170.3841,92.316820
1172.2477,92.354009
1174.1114,92.390314
1175.9751,92.419985
1177.8388,92.438671
1179.7024,92.464114
1181.5661,92.456643
1183.4298,92.434748
1185.2934,92.427958
1187.1571,92.456036
1189.0208,92.468330
1190.8844,92.465189
1192.7481,92.460019
1194.6118,92.456926
1196.4754,92.486644
1198.3391,92.487974
1200.2028,92.466681
1202.0665,92.460658
1203.9301,92.468448
1205.7938,92.482663
1207.6575,92.495398
1209.5211,92.497230
1211.3848,92.502684
1213.2485,92.518680
1215.1121,92.519159
1216.9758,92.511141
1218.8395,92.499512
1220.7031,92.496992
1222.5668,92.523964
1224.4305,92.551339
1226.2941,92.551040
1228.1578,92.549996
1230.0215,92.548613
1231.8852,92.529939
1233.7488,92.518878
1235.6125,92.516730
1237.4762,92.509787
1239.3398,92.517446
1241.2035,92.542162
1243.0672,92.564338
1244.9308,92.571054
1246.7945,92.565343
1248.6582,92.543538
1250.5218,92.549005
1252.3855,92.566588
1254.2492,92.568534
1256.1129,92.577131
1257.9765,92.600838
1259.8402,92.603674
1261.7039,92.596568
1263.5675,92.611892
1265.4312,92.622265
1267.2949,92.629734
1269.1585,92.641158
1271.0222,92.624401
1272.8859,92.621707
1274.7495,92.631243
1276.6132,92.633303
1278.4769,92.641901
1280.3405,92.650068
1282.2042,92.655493
1284.0679,92.659420
1285.9316,92.655942
1287.7952,92.649886
1289.6589,92.659584
1291.5226,92.683701
1293.3862,92.680468
1295.2499,92.666075
1297.1136,92.670243
1298.9772,92.660018
1300.8409,92.653736
1302.7046,92.662438
1304.5682,92.671925
1306.4319,92.669308
1308.2956,92.668689
1310.1592,92.671383
1312.0229,92.663711
1313.8866,92.662021
1315.7503,92.688672
1317.6139,92.690452
1319.4776,92.681832
1321.3413,92.696934
1323.2049,92.710522
1325.0686,92.714879
1326.9323,92.726074
1328.7959,92.744472
1330.6596,92.749275
1332.5233,92.749534
1334.3869,92.752692
1336.2506,92.759881
1338.1143,92.750423
1339.9780,92.736508
1341.8416,92.762577
1343.7053,92.795441
1345.5690,92.798945
1347.4326,92.792837
1349.2963,92.790647
1351.1600,92.805091
1353.0236,92.808885
1354.8873,92.810172
1356.7510,92.815845
1358.6146,92.840641
1360.4783,92.866759
1362.3420,92.869217
1364.2056,92.854727
1366.0693,92.852159
1367.9330,92.858165
1369.7967,92.869320
1371.6603,92.893768
1373.5240,92.908169
1375.3877,92.909273
1377.2513,92.916866
1379.1150,92.921310
1380.9787,92.940104
1382.8423,92.959969
1384.7060,92.971229
1386.5697,92.977151
1388.4333,92.967699
1390.2970,92.978148
1392.1607,93.006937
1394.0244,93.026306
1395.8880,93.035023
1397.7517,93.036106
1399.6154,93.018695
1401.4790,93.020738
1403.3427,93.046229
1405.2064,93.025058
1407.0700,93.017696
1408.9337,93.048924
1410.7974,93.065534
1412.6610,93.089756
1414.5247,93.111814
1416.3884,93.125719
1418.2520,93.137416
1420.1157,93.091338
1421.9794,93.077073
1423.8431,93.105163
1425.7067,93.124842
1427.5704,93.145195
1429.4341,93.137123
1431.2977,93.132283
1433.1614,93.162842
1435.0251,93.188030
1436.8887,93.171590
1438.7524,93.151433
1440.6161,93.163199
1442.4797,93.169252
1444.3434,93.187526
1446.2071,93.203141
1448.0707,93.206434
1449.9344,93.219776
1451.7981,93.260148
1453.6618,93.284336
1455.5254,93.287940
1457.3891,93.217253
1459.2528,93.216652
1461.1164,93.258254
1462.9801,93.274986
1464.8438,93.296899
1466.7074,93.306492
1468.5711,93.349352
1470.4348,93.408548
1472.2984,93.403471
1474.1621,93.358811
1476.0258,93.381262
1477.8895,93.395839
1479.7531,93.401015
1481.6168,93.404544
1483.4805,93.409357
1485.3441,93.447343
1487.2078,93.469612
1489.0715,93.458900
1490.9351,93.417059
1492.7988,93.423147
1494.6625,93.460109
1496.5261,93.446369
1498.3898,93.416022
1500.2535,93.428301
1502.1171,93.465017
1503.9808,93.501003
1505.8445,93.497172
1507.7082,93.440175
1509.5718,93.443871
1511.4355,93.470862
1513.2992,93.491729
1515.1628,93.524210
1517.0265,93.523057
1518.8902,93.504121
1520.7538,93.504665
1522.6175,93.473929
1524.4812,93.474200
1526.3448,93.482888
1528.2085,93.487295
1530.0722,93.514776
1531.9359,93.525862
1533.7995,93.505901
1535.6632,93.510815
1537.5269,93.566160
1539.3905,93.577091
1541.2542,93.529378
1543.1179,93.551283
1544.9815,93.569779
1546.8452,93.562103
1548.7089,93.584883
1550.5725,93.592605
1552.4362,93.576290
1554.2999,93.588998
1556.1635,93.668454
1558.0272,93.716501
1559.8909,93.586371
1561.7546,93.566684
1563.6182,93.637162
1565.4819,93.652162
1567.3456,93.652559
1569.2092,93.638632
1571.0729,93.619063
1572.9366,93.672101
1574.8002,93.706651
1576.6639,93.649229
1578.5276,93.640819
1580.3912,93.687876
1582.2549,93.705756
1584.1186,93.681060
1585.9822,93.668119
1587.8459,93.700808
1589.7096,93.733968
1591.5733,93.720575
1593.4369,93.728341
1595.3006,93.749690
1597.1643,93.741099
1599.0279,93.757205
1600.8916,93.775529
1602.7553,93.766162
1604.6189,93.747203
1606.4826,93.745367
1608.3463,93.769475
1610.2099,93.801592
1612.0736,93.816834
1613.9373,93.836650
1615.8010,93.825111
1617.6646,93.788728
1619.5283,93.838519
1621.3920,93.883957
1623.2556,93.874565
1625.1193,93.860120
1626.9830,93.868676
1628.8466,93.867940
1630.7103,93.889974
1632.5740,93.927423
1634.4376,93.937971
1636.3013,93.899614
1638.1650,93.870247
1640.0286,93.889836
1641.8923,93.902293
1643.7560,93.927261
1645.6197,93.970015
1647.4833,93.938153
1649.3470,93.936081
1651.2107,94.020319
1653.0743,93.995026
1654.9380,93.918790
1656.8017,93.956527
1658.6653,93.975145
1660.5290,93.997584
1662.3927,94.031691
1664.2563,94.036332
1666.1200,94.072116
1667.9837,94.128630
1669.8474,94.110168
1671.7110,94.078536
1673.5747,94.088313
1675.4384,94.095742
1677.3020,94.108609
1679.1657,94.156193
1681.0294,94.200224
1682.8930,94.235495
1684.7567,94.187646
1686.6204,94.139323
1688.4840,94.174848
1690.3477,94.210172
1692.2114,94.247479
1694.0750,94.291972
1695.9387,94.284622
1697.8024,94.269486
1699.6661,94.270546
1701.5297,94.222887
1703.3934,94.264983
1705.2571,94.295113
1707.1207,94.254790
1708.9844,94.252516
1710.8481,94.265890
1712.7117,94.310106
1714.5754,94.351536
1716.4391,94.304340
1718.3027,94.250191
1720.1664,94.268809
1722.0301,94.325636
1723.8937,94.312323
1725.7574,94.305864
1727.6211,94.352135
1729.4848,94.370447
1731.3484,94.396456
1733.2121,94.388431
1735.0758,94.297770
1736.9394,94.331267
1738.8031,94.411055
1740.6668,94.444939
1742.5304,94.456961
1744.3941,94.445890
1746.2578,94.479477
1748.1214,94.526331
1749.9851,94.535605
1751.8488,94.506087
1753.7125,94.500054
1755.5761,94.536063
1757.4398,94.543037
1759.3035,94.548244
1761.1671,94.546653
1763.0308,94.527810
1764.8945,94.528798
1766.7581,94.518558
1768.6218,94.522057
1770.4855,94.548265
1772.3491,94.568697
1774.2128,94.594376
1776.0765,94.604135
1777.9401,94.594687
1779.8038,94.611480
1781.6675,94.626213
1783.5312,94.662008
1785.3948,94.676053
1787.2585,94.624760
1789.1222,94.617016
1790.9858,94.640045
1792.8495,94.602054
1794.7132,94.614785
1796.5768,94.685286
1798.4405,94.701434
1800.3042,94.698306
1802.1678,94.722116
1804.0315,94.713786
1805.8952,94.703624
1807.7589,94.717457
1809.6225,94.740564
1811.4862,94.775440
1813.3499,94.834132
1815.2135,94.916665
1817.0772,94.965959
1818.9409,94.917578
1820.8045,94.836888
1822.6682,94.821134
1824.5319,94.886551
1826.3955,94.900543
1828.2592,94.876353
1830.1229,94.898134
1831.9865,94.847662
1833.8502,94.838452
1835.7139,94.904700
1837.5776,94.924722
1839.4412,94.898150
1841.3049,94.940054
1843.1686,95.018601
1845.0322,95.014268
1846.8959,94.997148
1848.7596,94.986553
1850.6232,94.971255
1852.4869,94.991130
1854.3506,95.024052
1856.2142,95.021737
1858.0779,95.014521
1859.9416,95.043371
1861.8052,95.074586
1863.6689,95.035333
1865.5326,94.959655
1867.3963,95.028470
1869.2599,95.142283
1871.1236,95.125214
1872.9873,95.125203
1874.8509,95.115713
1876.7146,95.108588
1878.5783,95.149366
1880.4419,95.166516
1882.3056,95.199366
1884.1693,95.175133
1886.0329,95.063020
1887.8966,95.095168
1889.7603,95.217949
1891.6240,95.223102
1893.4876,95.173502
1895.3513,95.221768
1897.2150,95.266894
1899.0786,95.235971
1900.9423,95.203902
1902.8060,95.262140
1904.6696,95.297356
1906.5333,95.250407
1908.3970,95.290193
1910.2606,95.372830
1912.1243,95.320118
1913.9880,95.235005
1915.8516,95.313530
1917.7153,95.398857
1919.5790,95.510882
1921.4427,95.590693
1923.3063,95.512431
1925.1700,95.525995
1927.0337,95.654100
1928.8973,95.784220
1930.7610,95.761932
1932.6247,95.617885
1934.4883,95.642267
1936.3520,95.645185
1938.2157,95.559209
1940.0793,95.666242
1941.9430,95.901028
1943.8067,95.976337
1945.6704,95.835656
1947.5340,95.742793
1949.3977,95.872395
1951.2614,96.076001
1953.1250,96.024684
1954.9887,95.939035
1956.8524,96.113250
1958.7160,96.318410
1960.5797,96.113070
1962.4434,95.887181
1964.3070,95.965526
1966.1707,96.083198
1968.0344,96.242932
1969.8980,96.538623
1971.7617,96.744220
1973.6254,96.683614
1975.4891,96.152239
1977.3527,95.526646
1979.2164,95.492248
1981.0801,95.929006
1982.9437,96.021527
1984.8074,95.719302
1986.6711,95.714775
1988.5347,95.784983
1990.3984,95.546484
1992.2621,95.636994
1994.1257,96.035930
1995.9894,96.201313
1997.8531,96.210994
1999.7167,96.196022
2001.5804,95.955050
2003.4441,95.888990
2005.3078,96.174273
2007.1714,96.200280
2009.0351,95.892230
2010.8988,95.976082
2012.7624,96.197143
2014.6261,96.255864
2016.4898,96.426237
2018.3534,96.824324
2020.2171,96.708692
2022.0808,96.092448
2023.9444,96.330122
2025.8081,96.681241
2027.6718,96.238229
2029.5355,95.777453
2031.3991,95.896590
2033.2628,96.182518
2035.1265,96.119964
2036.9901,96.301432
2038.8538,96.397992
2040.7175,95.847189
2042.5811,95.526582
2044.4448,95.884416
2046.3085,96.017918
2048.1721,95.657292
2050.0358,95.411893
2051.8995,95.303012
2053.7631,95.277122
2055.6268,95.279183
2057.4905,95.288286
2059.3542,95.411367
2061.2178,95.589190
2063.0815,95.732343
2064.9452,95.595760
2066.8088,95.328963
2068.6725,95.432848
2070.5362,95.455437
2072.3998,95.340306
2074.2635,95.403381
2076.1272,95.381208
2077.9908,95.359332
2079.8545,95.414683
2081.7182,95.349732
2083.5819,95.318940
2085.4455,95.418000
2087.3092,95.483855
2089.1729,95.423574
2091.0365,95.287244
2092.9002,95.393452
2094.7639,95.559606
2096.6275,95.520603
2098.4912,95.507683
2100.3549,95.411665
2102.2185,95.255825
2104.0822,95.327879
2105.9459,95.500246
2107.8095,95.567561
2109.6732,95.415928
2111.5369,95.395802
2113.4006,95.510727
2115.2642,95.364562
2117.1279,95.312001
2118.9916,95.458941
2120.8552,95.425907
2122.7189,95.492861
2124.5826,95.658239
2126.4462,95.672042
2128.3099,95.849957
2130.1736,96.047382
2132.0372,95.946143
2133.9009,95.811291
2135.7646,95.896477
2137.6282,95.861959
2139.4919,95.815676
2141.3556,96.213892
2143.2193,96.529820
2145.0829,96.306656
2146.9466,96.000322
2148.8103,96.094826
2150.6739,96.455204
2152.5376,96.420196
2154.4013,96.117640
2156.2649,96.046443
2158.1286,95.910934
2159.9923,95.556954
2161.8559,95.431824
2163.7196,95.780443
2165.5833,95.904279
2167.4470,95.580239
2169.3106,95.604011
2171.1743,95.904225
2173.0380,95.994996
2174.9016,95.942144
2176.7653,95.860443
2178.6290,95.767289
2180.4926,95.630289
2182.3563,95.644054
2184.2200,95.727042
2186.0836,95.699798
2187.9473,95.746139
2189.8110,95.768258
2191.6746,95.425028
2193.5383,95.038714
2195.4020,95.137643
2197.2657,95.509420
2199.1293,95.566410
2200.9930,95.398651
2202.8567,95.356647
2204.7203,95.382829
2206.5840,95.348171
2208.4477,95.241254
2210.3113,95.290266
2212.1750,95.373846
2214.0387,95.381224
2215.9023,95.567246
2217.7660,95.749151
2219.6297,95.577116
2221.4934,95.480006
2223.3570,95.636236
2225.2207,95.435761
2227.0844,95.108799
2228.9480,95.079395
2230.8117,95.087249
2232.6754,95.173047
2234.5390,95.277746
2236.4027,95.247347
2238.2664,95.205723
2240.1300,95.268747
2241.9937,95.437048
2243.8574,95.416869
2245.7210,95.189287
2247.5847,95.222369
2249.4484,95.350222
2251.3121,95.247942
2253.1757,95.221543
2255.0394,95.298144
2256.9031,95.297000
2258.7667,95.209965
2260.6304,95.067602
2262.4941,95.001188
2264.3577,95.039505
2266.2214,95.028756
2268.0851,94.980779
2269.9487,95.038063
2271.8124,95.161971
2273.6761,95.146464
2275.5397,95.015971
2277.4034,94.988003
2279.2671,94.939548
2281.1308,94.896516
2282.9944,94.969544
2284.8581,94.936076
2286.7218,94.781174
2288.5854,94.747124
2290.4491,94.816900
2292.3128,94.907432
2294.1764,95.026561
2296.0401,95.087900
2297.9038,95.053119
2299.7674,95.013949
2301.6311,95.021403
2303.4948,94.995788
2305.3585,94.962130
2307.2221,95.028031
2309.0858,95.076397
2310.9495,95.016225
2312.8131,94.951479
2314.6768,94.925690
2316.5405,94.926203
2318.4041,94.925125
2320.2678,94.842040
2322.1315,94.694342
2323.9951,94.696642
2325.8588,94.926660
2327.7225,95.116838
2329.5861,95.149240
2331.4498,95.198986
2333.3135,95.207394
2335.1772,95.170412
2337.0408,95.189619
2338.9045,95.203139
2340.7682,95.175640
2342.6318,95.162865
2344.4955,95.203957
2346.3592,95.241646
2348.2228,95.252323
2350.0865,95.244509
2351.9502,95.228251
2353.8138,95.262297
2355.6775,95.338709
2357.5412,95.343705
2359.4049,95.300059
2361.2685,95.302129
2363.1322,95.394633
2364.9959,95.471167
2366.8595,95.472144
2368.7232,95.430859
2370.5869,95.368195
2372.4505,95.352136
2374.3142,95.373692
2376.1779,95.375699
2378.0415,95.379291
2379.9052,95.392945
2381.7689,95.378077
2383.6325,95.360877
2385.4962,95.368410
2387.3599,95.429411
2389.2236,95.484448
2391.0872,95.461446
2392.9509,95.402266
2394.8146,95.444935
2396.6782,95.530084
2398.5419,95.514278
2400.4056,95.432500
2402.2692,95.393137
2404.1329,95.479708
2405.9966,95.500366
2407.8602,95.411272
2409.7239,95.407677
2411.5876,95.496489
2413.4512,95.572068
2415.3149,95.547741
2417.1786,95.480667
2419.0423,95.499312
2420.9059,95.559339
2422.7696,95.575230
2424.6333,95.510280
2426.4969,95.409346
2428.3606,95.356914
2430.2243,95.359973
2432.0879,95.420077
2433.9516,95.483172
2435.8153,95.478123
2437.6789,95.405396
2439.5426,95.382205
2441.4063,95.419838
2443.2700,95.432677
2445.1336,95.501855
2446.9973,95.513310
2448.8610,95.464995
2450.7246,95.495557
2452.5883,95.487482
2454.4520,95.446461
2456.3156,95.454532
2458.1793,95.413563
2460.0430,95.362699
2461.9066,95.417959
2463.7703,95.445387
2465.6340,95.476135
2467.4976,95.531293
2469.3613,95.519221
2471.2250,95.520102
2473.0887,95.521381
2474.9523,95.493471
2476.8160,95.474632
2478.6797,95.452902
2480.5433,95.473228
2482.4070,95.508510
2484.2707,95.522770
2486.1343,95.519032
2487.9980,95.492582
2489.8617,95.498558
2491.7253,95.488021
2493.5890,95.433210
2495.4527,95.417150
2497.3164,95.469781
2499.1800,95.483568
2501.0437,95.553391
2502.9074,95.614539
2504.7710,95.547504
2506.6347,95.574062
2508.4984,95.557420
2510.3620,95.526770
2512.2257,95.552893
2514.0894,95.487919
2515.9530,95.498098
2517.8167,95.597517
2519.6804,95.558494
2521.5440,95.535342
2523.4077,95.549329
2525.2714,95.534069
2527.1351,95.547933
2528.9987,95.571300
2530.8624,95.573123
2532.7261,95.519527
2534.5897,95.594564
2536.4534,95.710635
2538.3171,95.627294
2540.1807,95.504115
2542.0444,95.469302
2543.9081,95.476651
2545.7717,95.504346
2547.6354,95.572718
2549.4991,95.566023
2551.3627,95.481870
2553.2264,95.566136
2555.0901,95.658796
2556.9538,95.651317
2558.8174,95.664548
2560.6811,95.632614
2562.5448,95.518936
2564.4084,95.434622
2566.2721,95.484763
2568.1358,95.485447
2569.9994,95.415449
2571.8631,95.456809
2573.7268,95.510955
2575.5904,95.543908
2577.4541,95.526162
2579.3178,95.444361
2581.1815,95.393883
2583.0451,95.535173
2584.9088,95.632950
2586.7725,95.479466
2588.6361,95.393922
2590.4998,95.460621
2592.3635,95.459550
2594.2271,95.402436
2596.0908,95.390463
2597.9545,95.438432
2599.8181,95.445248
2601.6818,95.429934
2603.5455,95.436490
2605.4091,95.363003
2607.2728,95.326800
2609.1365,95.382459
2611.0002,95.418571
2612.8638,95.444355
2614.7275,95.410470
2616.5912,95.373843
2618.4548,95.416118
2620.3185,95.451519
2622.1822,95.389161
2624.0458,95.349876
2625.9095,95.370589
2627.7732,95.350339
2629.6368,95.294756
2631.5005,95.291086
2633.3642,95.308273
2635.2279,95.295224
2637.0915,95.303151
2638.9552,95.315469
2640.8189,95.295681
2642.6825,95.248346
2644.5462,95.203962
2646.4099,95.223256
2648.2735,95.282051
2650.1372,95.320343
2652.0009,95.345810
2653.8645,95.333908
2655.7282,95.290765
2657.5919,95.313504
2659.4555,95.349056
2661.3192,95.373502
2663.1829,95.443974
2665.0466,95.487312
2666.9102,95.460281
2668.7739,95.457233
2670.6376,95.492899
2672.5012,95.492488
2674.3649,95.462898
2676.2286,95.461884
2678.0922,95.505959
2679.9559,95.508767
2681.8196,95.485217
2683.6832,95.446785
2685.5469,95.432937
2687.4106,95.451421
2689.2742,95.443727
2691.1379,95.463348
2693.0016,95.540288
2694.8653,95.543994
2696.7289,95.493386
2698.5926,95.477248
2700.4563,95.469154
2702.3199,95.444623
2704.1836,95.462926
2706.0473,95.528885
2707.9109,95.528124
2709.7746,95.513610
2711.6383,95.534353
2713.5019,95.530763
2715.3656,95.486895
2717.2293,95.495903
2719.0930,95.547405
2720.9566,95.569812
2722.8203,95.540455
2724.6840,95.538558
2726.5476,95.546975
2728.4113,95.506281
2730.2750,95.460889
2732.1386,95.460165
2734.0023,95.510226
2735.8660,95.536532
2737.7296,95.514950
2739.5933,95.495257
2741.4570,95.493802
2743.3206,95.522385
2745.1843,95.571012
2747.0480,95.577439
2748.9117,95.554941
2750.7753,95.554836
2752.6390,95.520956
2754.5027,95.508039
2756.3663,95.502743
2758.2300,95.488439
2760.0937,95.514973
2761.9573,95.509205
2763.8210,95.546837
2765.6847,95.565491
2767.5483,95.495633
2769.4120,95.484461
2771.2757,95.525513
2773.1394,95.537448
2775.0030,95.483552
2776.8667,95.493155
2778.7304,95.564443
2780.5940,95.561601
2782.4577,95.513395
2784.3214,95.531755
2786.1850,95.557105
2788.0487,95.553042
2789.9124,95.544420
2791.7760,95.481256
2793.6397,95.499263
2795.5034,95.533812
2797.3670,95.487554
2799.2307,95.525454
2801.0944,95.584875
2802.9581,95.504586
2804.8217,95.475433
2806.6854,95.515220
2808.5491,95.524515
2810.4127,95.527647
2812.2764,95.528220
2814.1401,95.508788
2816.0037,95.457597
2817.8674,95.460508
2819.7311,95.495028
2821.5947,95.480296
2823.4584,95.494513
2825.3221,95.530597
2827.1857,95.505516
2829.0494,95.454990
2830.9131,95.444152
2832.7768,95.484657
2834.6404,95.538018
2836.5041,95.533144
2838.3678,95.495949
2840.2314,95.480667
2842.0951,95.521289
2843.9588,95.532446
2845.8224,95.488557
2847.6861,95.453913
2849.5498,95.423806
2851.4134,95.447029
2853.2771,95.491456
2855.1408,95.531424
2857.0045,95.522047
2858.8681,95.525510
2860.7318,95.518648
2862.5955,95.463214
2864.4591,95.493763
2866.3228,95.518176
2868.1865,95.465624
2870.0501,95.470705
2871.9138,95.500482
2873.7775,95.420696
2875.6411,95.378427
2877.5048,95.467326
2879.3685,95.543939
2881.2321,95.512268
2883.0958,95.463212
2884.9595,95.473784
2886.8232,95.486651
2888.6868,95.459950
2890.5505,95.437168
2892.4142,95.414943
2894.2778,95.423734
2896.1415,95.452496
2898.0052,95.481249
2899.8688,95.508040
2901.7325,95.435625
2903.5962,95.365220
2905.4598,95.432207
2907.3235,95.500565
2909.1872,95.481592
2911.0509,95.511153
2912.9145,95.588324
2914.7782,95.603565
2916.6419,95.543271
2918.5055,95.515225
2920.3692,95.530432
2922.2329,95.567615
2924.0965,95.611272
2925.9602,95.616602
2927.8239,95.571273
2929.6875,95.529787
2931.5512,95.582970
2933.4149,95.677394
2935.2785,95.670784
2937.1422,95.636275
2939.0059,95.590178
2940.8696,95.598650
2942.7332,95.653356
2944.5969,95.688335
2946.4606,95.713518
2948.3242,95.683866
2950.1879,95.641436
2952.0516,95.616167
2953.9152,95.592081
2955.7789,95.633516
2957.6426,95.679499
2959.5062,95.671493
2961.3699,95.688143
2963.2336,95.744400
2965.0972,95.784759
2966.9609,95.835863
2968.8246,95.849886
2970.6883,95.789525
2972.5519,95.717292
2974.4156,95.736052
2976.2793,95.761478
2978.1429,95.765502
2980.0066,95.800102
2981.8703,95.846546
2983.7339,95.873480
2985.5976,95.841352
2987.4613,95.744322
2989.3249,95.716010
2991.1886,95.795963
2993.0523,95.819388
2994.9160,95.809414
2996.7796,95.756981
2998.6433,95.767741
3000.5070,95.836250
3002.3706,95.812970
3004.2343,95.810796
3006.0980,95.850093
3007.9616,95.845344
3009.8253,95.906702
3011.6890,95.926592
3013.5526,95.847608
3015.4163,95.784766
3017.2800,95.791492
3019.1436,95.816511
3021.0073,95.829183
3022.8710,95.793418
3024.7347,95.744595
3026.5983,95.734982
3028.4620,95.749992
3030.3257,95.798207
3032.1893,95.825503
3034.0530,95.745522
3035.9167,95.712711
3037.7803,95.748171
3039.6440,95.748075
3041.5077,95.749411
3043.3713,95.795182
3045.2350,95.789084
3047.0987,95.802792
3048.9624,95.825639
3050.8260,95.799360
3052.6897,95.778930
3054.5534,95.770065
3056.4170,95.711411
3058.2807,95.648744
3060.1444,95.628736
3062.0080,95.696965
3063.8717,95.712749
3065.7354,95.700172
3067.5990,95.724516
3069.4627,95.764736
3071.3264,95.773473
3073.1900,95.721116
3075.0537,95.697734
3076.9174,95.728437
3078.7811,95.729358
3080.6447,95.713958
3082.5084,95.692948
3084.3721,95.655311
3086.2357,95.699837
3088.0994,95.772452
3089.9631,95.765611
3091.8267,95.671048
3093.6904,95.598811
3095.5541,95.626502
3097.4177,95.671351
3099.2814,95.665096
3101.1451,95.700133
3103.0087,95.773281
3104.8724,95.814906
3106.7361,95.772354
3108.5998,95.673933
3110.4634,95.650057
3112.3271,95.648055
3114.1908,95.700852
3116.0544,95.760274
3117.9181,95.691603
3119.7818,95.624273
3121.6454,95.602441
3123.5091,95.627879
3125.3728,95.663253
3127.2364,95.618236
3129.1001,95.636881
3130.9638,95.716044
3132.8275,95.649109
3134.6911,95.562433
3136.5548,95.646785
3138.4185,95.674937
3140.2821,95.653770
3142.1458,95.668842
3144.0095,95.644522
3145.8731,95.589595
3147.7368,95.583666
3149.6005,95.611080
3151.4641,95.626671
3153.3278,95.647328
3155.1915,95.696880
3157.0551,95.737319
3158.9188,95.669174
3160.7825,95.623256
3162.6462,95.637571
3164.5098,95.612862
3166.3735,95.594475
3168.2372,95.607859
3170.1008,95.667012
3171.9645,95.646824
3173.8282,95.594387
3175.6918,95.584603
3177.5555,95.524918
3179.4192,95.555787
3181.2828,95.614390
3183.1465,95.580785
3185.0102,95.570434
3186.8739,95.560226
3188.7375,95.561086
3190.6012,95.581913
3192.4649,95.621468
3194.3285,95.633016
3196.1922,95.634936
3198.0559,95.620170
3199.9195,95.609066
3201.7832,95.639680
3203.6469,95.646788
3205.5105,95.592892
3207.3742,95.575990
3209.2379,95.567047
3211.1015,95.575306
3212.9652,95.517286
3214.8289,95.486590
3216.6926,95.604455
3218.5562,95.695299
3220.4199,95.594438
3222.2836,95.572831
3224.1472,95.626484
3226.0109,95.582725
3227.8746,95.494068
3229.7382,95.569750
3231.6019,95.602307
3233.4656,95.499626
3235.3292,95.416192
3237.1929,95.482225
3239.0566,95.541873
3240.9202,95.549175
3242.7839,95.508053
3244.6476,95.453528
3246.5113,95.507821
3248.3749,95.564974
3250.2386,95.463452
3252.1023,95.420417
3253.9659,95.426791
3255.8296,95.463676
3257.6933,95.497176
3259.5569,95.517295
3261.4206,95.602190
3263.2843,95.642970
3265.1479,95.555602
3267.0116,95.497021
3268.8753,95.529140
3270.7390,95.470803
3272.6026,95.432725
3274.4663,95.474135
3276.3300,95.441724
3278.1936,95.362998
3280.0573,95.307328
3281.9210,95.454495
3283.7846,95.617738
3285.6483,95.655477
3287.5120,95.571800
3289.3756,95.553820
3291.2393,95.695187
3293.1030,95.673970
3294.9666,95.563200
3296.8303,95.508671
3298.6940,95.524343
3300.5577,95.481040
3302.4213,95.411421
3304.2850,95.493452
3306.1487,95.623834
3308.0123,95.679017
3309.8760,95.617631
3311.7397,95.532127
3313.6033,95.464801
3315.4670,95.439654
3317.3307,95.505332
3319.1943,95.524120
3321.0580,95.503284
3322.9217,95.572924
3324.7854,95.598530
3326.6490,95.557815
3328.5127,95.556282
3330.3764,95.594367
3332.2400,95.641323
3334.1037,95.563476
3335.9674,95.549212
3337.8310,95.694827
3339.6947,95.680884
3341.5584,95.607448
3343.4220,95.685909
3345.2857,95.633171
3347.1494,95.558358
3349.0130,95.532231
3350.8767,95.559844
3352.7404,95.602483
3354.6041,95.609155
3356.4677,95.569864
3358.3314,95.543987
3360.1951,95.556083
3362.0587,95.590088
3363.9224,95.605894
3365.7861,95.616644
3367.6497,95.741297
3369.5134,95.748450
3371.3771,95.591771
3373.2407,95.585095
3375.1044,95.710796
3376.9681,95.710025
3378.8317,95.719601
3380.6954,95.767673
3382.5591,95.792585
3384.4228,95.689336
3386.2864,95.644517
3388.1501,95.767082
3390.0138,95.773291
3391.8774,95.711314
3393.7411,95.738700
3395.6048,95.676071
3397.4684,95.724649
3399.3321,95.780363
3401.1958,95.641074
3403.0594,95.610440
3404.9231,95.786769
3406.7868,95.835574
3408.6505,95.804977
3410.5141,95.817820
3412.3778,95.755926
3414.2415,95.625907
3416.1051,95.700560
3417.9688,95.827099
3419.8325,95.776919
3421.6961,95.748858
3423.5598,95.802774
3425.4235,95.809142
3427.2871,95.910671
3429.1508,96.030456
3431.0145,95.947044
3432.8781,95.776344
3434.7418,95.783476
3436.6055,95.768431
3438.4692,95.757187
3440.3328,95.771023
3442.1965,95.832072
3444.0602,95.915500
3445.9238,95.917146
3447.7875,95.931830
3449.6512,95.917493
3451.5148,95.838775
3453.3785,95.818456
3455.2422,95.917285
3457.1058,96.025285
3458.9695,95.941722
3460.8332,95.885730
3462.6969,95.946516
3464.5605,96.041475
3466.4242,96.009266
3468.2879,95.951215
3470.1515,96.022707
3472.0152,96.003590
3473.8789,96.015314
3475.7425,96.061792
3477.6062,95.983341
3479.4699,96.031737
3481.3335,96.091740
3483.1972,95.972563
3485.0609,95.879393
3486.9245,95.981774
3488.7882,96.059384
3490.6519,96.088055
3492.5156,96.098055
3494.3792,96.151380
3496.2429,96.174632
3498.1066,96.058781
3499.9702,96.057883
3501.8339,96.242064
3503.6976,96.262655
3505.5612,96.126703
3507.4249,96.010666
3509.2886,96.017818
3511.1522,96.182685
3513.0159,96.334712
3514.8796,96.320741
3516.7432,96.096562
3518.6069,95.941409
3520.4706,96.065952
3522.3343,96.202082
3524.1979,96.227992
3526.0616,96.147365
3527.9253,96.176649
3529.7889,96.205841
3531.6526,96.181150
3533.5163,96.222507
3535.3799,96.272642
3537.2436,96.302529
3539.1073,96.170647
3540.9709,96.242477
3542.8346,96.416432
3544.6983,96.318900
3546.5620,96.260976
3548.4256,96.257987
3550.2893,96.306458
3552.1530,96.359743
3554.0166,96.439106
3555.8803,96.382627
3557.7440,96.269287
3559.6076,96.239455
3561.4713,96.224463
3563.3350,96.334176
3565.1986,96.383179
3567.0623,96.327138
3568.9260,96.332932
3570.7896,96.423834
3572.6533,96.428555
3574.5170,96.396060
3576.3807,96.315218
3578.2443,96.194004
3580.1080,96.237896
3581.9717,96.377671
3583.8353,96.546732
3585.6990,96.589883
3587.5627,96.571717
3589.4263,96.541431
3591.2900,96.457626
3593.1537,96.347102
3595.0173,96.298455
3596.8810,96.254509
3598.7447,96.373397
3600.6084,96.576558
3602.4720,96.619084
3604.3357,96.469187
3606.1994,96.469662
3608.0630,96.535431
3609.9267,96.450063
3611.7904,96.319722
3613.6540,96.378553
3615.5177,96.449665
3617.3814,96.458165
3619.2450,96.429845
3621.1087,96.400883
3622.9724,96.493008
3624.8360,96.566276
3626.6997,96.579808
3628.5634,96.619042
3630.4271,96.437455
3632.2907,96.348462
3634.1544,96.473568
3636.0181,96.584119
3637.8817,96.539950
3639.7454,96.535830
3641.6091,96.380842
3643.4727,96.254162
3645.3364,96.451010
3647.2001,96.507881
3649.0637,96.484681
3650.9274,96.562401
3652.7911,96.438124
3654.6547,96.414350
3656.5184,96.539145
3658.3821,96.540505
3660.2458,96.470773
3662.1094,96.517223
3663.9731,96.490884
3665.8368,96.459066
3667.7004,96.584451
3669.5641,96.653306
3671.4278,96.533770
3673.2914,96.660367
3675.1551,96.625779
3677.0188,96.375599
3678.8824,96.407883
3680.7461,96.536364
3682.6098,96.506847
3684.4735,96.374693
3686.3371,96.392634
3688.2008,96.502800
3690.0645,96.461401
3691.9281,96.367304
3693.7918,96.533703
3695.6555,96.596544
3697.5191,96.463584
3699.3828,96.371419
3701.2465,96.307139
3703.1101,96.291462
3704.9738,96.370415
3706.8375,96.588998
3708.7011,96.523291
3710.5648,96.430811
3712.4285,96.483820
3714.2922,96.413079
3716.1558,96.346312
3718.0195,96.352365
3719.8832,96.353930
3721.7468,96.406085
3723.6105,96.315083
3725.4742,96.289031
3727.3378,96.389738
3729.2015,96.348500
3731.0652,96.225915
3732.9288,96.392591
3734.7925,96.600737
3736.6562,96.565169
3738.5199,96.481969
3740.3835,96.556249
3742.2472,96.614807
3744.1109,96.500622
3745.9745,96.250649
3747.8382,96.388732
3749.7019,96.513384
3751.5655,96.390087
3753.4292,96.213076
3755.2929,96.279280
3757.1565,96.424156
3759.0202,96.450723
3760.8839,96.312281
3762.7475,96.412666
3764.6112,96.458413
3766.4749,96.329143
3768.3386,96.313812
3770.2022,96.252386
3772.0659,96.259938
3773.9296,96.343906
3775.7932,96.342090
3777.6569,96.280609
3779.5206,96.245234
3781.3842,96.287935
3783.2479,96.396660
3785.1116,96.435589
3786.9752,96.389920
3788.8389,96.378706
3790.7026,96.411493
3792.5662,96.433714
3794.4299,96.410458
3796.2936,96.509187
3798.1573,96.555072
3800.0209,96.458927
3801.8846,96.380856
3803.7483,96.276410
3805.6119,96.348759
3807.4756,96.465765
3809.3393,96.396295
3811.2029,96.433451
3813.0666,96.432295
3814.9303,96.451555
3816.7939,96.443697
3818.6576,96.493395
3820.5213,96.540885
3822.3850,96.397510
3824.2486,96.301697
3826.1123,96.456692
3827.9760,96.487920
3829.8396,96.412110
3831.7033,96.467861
3833.5670,96.359350
3835.4306,96.350347
3837.2943,96.431515
3839.1580,96.372834
3841.0216,96.350271
3842.8853,96.350372
3844.7490,96.419057
3846.6126,96.477435
3848.4763,96.481060
3850.3400,96.489749
3852.2037,96.572876
3854.0673,96.506456
3855.9310,96.461054
3857.7947,96.541524
3859.6583,96.531868
3861.5220,96.382472
3863.3857,96.380416
3865.2493,96.451829
3867.1130,96.432417
3868.9767,96.490825
3870.8403,96.558204
3872.7040,96.468930
3874.5677,96.481479
3876.4314,96.539625
3878.2950,96.565671
3880.1587,96.516264
3882.0224,96.510003
3883.8860,96.576019
3885.7497,96.462775
3887.6134,96.380455
3889.4770,96.481123
3891.3407,96.416917
3893.2044,96.322059
3895.0680,96.383915
3896.9317,96.527810
3898.7954,96.535701
3900.6590,96.540675
3902.5227,96.576482
3904.3864,96.596635
3906.2501,96.452240
3908.1137,96.413395
3909.9774,96.458229
3911.8411,96.520949
3913.7047,96.582992
3915.5684,96.641938
3917.4321,96.644066
3919.2957,96.508435
3921.1594,96.417122
3923.0231,96.477447
3924.8867,96.541681
3926.7504,96.566749
3928.6141,96.519070
3930.4777,96.433548
3932.3414,96.466478
3934.2051,96.578073
3936.0688,96.473729
3937.9324,96.555517
3939.7961,96.584023
3941.6598,96.562139
3943.5234,96.506090
3945.3871,96.465814
3947.2508,96.504298
3949.1144,96.536852
3950.9781,96.568612
3952.8418,96.431689
3954.7054,96.373433
3956.5691,96.479991
3958.4328,96.543978
3960.2965,96.595497
3962.1601,96.540567
3964.0238,96.489275
3965.8875,96.496931
3967.7511,96.568993
3969.6148,96.615171
3971.4785,96.603965
3973.3421,96.613891
3975.2058,96.565238
3977.0695,96.392349
3978.9331,96.477449
3980.7968,96.580364
3982.6605,96.563693
3984.5241,96.546712
3986.3878,96.500057
3988.2515,96.532465
3990.1152,96.547608
3991.9788,96.517407
3993.8425,96.578896
3995.7062,96.513777
3997.5698,96.526479
3999.4335,96.511403
