Wavenumber,Intensity
400.6888,83.560515
402.5525,83.917577
404.4162,84.249594
406.2798,84.521105
408.1435,85.195917
410.0072,85.144814
411.8708,84.504222
413.7345,83.176438
415.5982,83.457606
417.4618,82.968358
419.3255,82.244503
421.1892,82.239582
423.0528,82.295706
424.9165,81.603702
426.7802,81.885152
428.6439,81.873376
430.5075,82.348563
432.3712,82.554795
434.2349,82.522907
436.0985,82.122183
437.9622,82.093517
439.8259,82.051344
441.6895,82.287242
443.5532,82.223704
445.4169,82.191502
447.2805,82.072745
449.1442,82.003228
451.0079,82.045751
452.8715,82.144355
454.7352,82.131707
456.5989,82.336206
458.4626,82.354821
460.3262,82.525765
462.1899,82.491033
464.0536,82.533948
465.9172,82.286399
467.7809,82.283953
469.6446,82.494061
471.5082,82.733114
473.3719,82.682443
475.2356,82.709443
477.0992,82.710557
478.9629,82.703444
480.8266,82.719451
482.6902,82.931944
484.5539,82.959819
486.4176,83.030942
488.2813,82.922442
490.1449,82.920327
492.0086,82.933418
493.8723,82.982315
495.7359,83.141032
497.5996,83.227215
499.4633,83.116474
501.3269,83.187688
503.1906,83.371937
505.0543,83.412376
506.9179,83.367870
508.7816,83.456428
510.6453,83.509300
512.5090,83.673475
514.3726,83.715467
516.2363,83.688354
518.1000,83.706697
519.9636,83.886660
521.8273,83.893983
523.6910,83.918749
525.5546,84.012519
527.4183,84.112591
529.2820,84.278650
531.1456,84.596655
533.0093,84.626652
534.8730,84.667212
536.7366,84.813617
538.6003,85.073248
540.4640,85.161785
542.3277,85.231722
544.1913,85.320357
546.0550,85.523432
547.9187,85.677402
549.7823,85.845384
551.6460,86.068140
553.5097,86.234571
555.3733,86.342067
557.2370,86.514832
559.1007,86.615708
560.9643,86.707423
562.8280,86.732474
564.6917,86.736421
566.5554,86.731857
568.4190,86.766000
570.2827,86.746558
572.1464,86.764473
574.0100,86.755450
575.8737,86.729024
577.7374,86.654442
579.6010,86.611200
581.4647,86.630780
583.3284,86.624626
585.1920,86.605662
587.0557,86.600434
588.9194,86.498633
590.7830,86.520251
592.6467,86.554374
594.5104,86.607176
596.3741,86.654136
598.2377,86.658480
600.1014,86.595741
601.9651,86.590421
603.8287,86.620467
605.6924,86.632984
607.5561,86.595544
609.4197,86.587198
611.2834,86.625814
613.1471,86.667550
615.0107,86.719409
616.8744,86.715762
618.7381,86.671358
620.6017,86.671770
622.4654,86.748189
624.3291,86.835025
626.1928,86.854012
628.0564,86.878464
629.9201,86.889228
631.7838,86.924949
633.6474,86.931500
635.5111,86.960972
637.3748,86.995388
639.2384,86.994511
641.1021,86.994348
642.9658,87.027021
644.8294,87.058743
646.6931,87.089155
648.5568,87.110447
650.4205,87.134680
652.2841,87.123125
654.1478,87.154262
656.0115,87.195783
657.8751,87.227233
659.7388,87.244869
661.6025,87.253406
663.4661,87.250262
665.3298,87.292111
667.1935,87.403147
669.0571,87.407363
670.9208,87.399356
672.7845,87.442022
674.6481,87.434033
676.5118,87.449119
678.3755,87.505656
680.2392,87.481039
682.1028,87.455994
683.9665,87.516605
685.8302,87.548861
687.6938,87.563770
689.5575,87.578797
691.4212,87.630585
693.2848,87.677858
695.1485,87.670769
697.0122,87.671821
698.8758,87.699948
700.7395,87.740003
702.6032,87.772414
704.4669,87.779940
706.3305,87.804461
708.1942,87.837560
710.0579,87.878872
711.9215,87.847364
713.7852,87.846967
715.6489,87.891599
717.5125,87.953011
719.3762,87.991948
721.2399,87.986237
723.1035,87.955479
724.9672,87.958577
726.8309,87.998282
728.6945,88.057724
730.5582,88.093362
732.4219,88.092872
734.2856,88.084359
736.1492,88.110838
738.0129,88.160088
739.8766,88.171997
741.7402,88.153968
743.6039,88.192368
745.4676,88.240348
747.3312,88.246543
749.1949,88.236947
751.0586,88.230055
752.9222,88.235530
754.7859,88.264367
756.6496,88.288344
758.5132,88.321140
760.3769,88.323803
762.2406,88.329927
764.1043,88.345802
765.9679,88.358953
767.8316,88.346522
769.6953,88.367764
771.5589,88.362466
773.4226,88.393960
775.2863,88.427190
777.1499,88.442967
779.0136,88.477179
780.8773,88.470240
782.7409,88.444841
784.6046,88.467635
786.4683,88.510074
788.3320,88.549394
790.1956,88.574876
792.0593,88.610828
793.9230,88.606386
795.7866,88.566974
797.6503,88.594394
799.5140,88.675521
801.3776,88.693918
803.2413,88.683583
805.1050,88.688975
806.9686,88.718037
808.8323,88.731165
810.6960,88.734268
812.5596,88.760441
814.4233,88.760052
816.2870,88.743349
818.1507,88.782654
820.0143,88.800000
821.8780,88.815995
823.7417,88.850334
825.6053,88.874086
827.4690,88.907388
829.3327,88.926106
831.1963,88.907940
833.0600,88.914068
834.9237,88.929183
836.7873,88.946093
838.6510,88.974035
840.5147,89.015967
842.3784,89.037163
844.2420,89.032524
846.1057,89.027260
847.9694,89.059690
849.8330,89.087840
851.6967,89.129721
853.5604,89.148315
855.4240,89.133112
857.2877,89.151699
859.1514,89.224901
861.0150,89.225387
862.8787,89.189764
864.7424,89.205844
866.6060,89.210015
868.4697,89.201353
870.3334,89.239800
872.1971,89.284932
874.0607,89.315677
875.9244,89.342702
877.7881,89.377451
879.6517,89.419757
881.5154,89.438499
883.3791,89.456094
885.2427,89.463715
887.1064,89.470323
888.9701,89.491908
890.8337,89.496951
892.6974,89.486648
894.5611,89.502841
896.4247,89.544101
898.2884,89.556906
900.1521,89.540863
902.0158,89.545577
903.8794,89.578396
905.7431,89.605312
907.6068,89.618341
909.4704,89.637442
911.3341,89.666480
913.1978,89.656987
915.0614,89.652424
916.9251,89.679640
918.7888,89.697515
920.6524,89.721278
922.5161,89.735418
924.3798,89.743808
926.2435,89.769467
928.1071,89.767525
929.9708,89.763737
931.8345,89.790225
933.6981,89.829133
935.5618,89.838310
937.4255,89.837859
939.2891,89.851286
941.1528,89.861547
943.0165,89.888482
944.8801,89.930198
946.7438,89.938994
948.6075,89.943806
950.4711,89.962891
952.3348,89.968059
954.1985,89.981952
956.0622,89.994073
957.9258,89.984132
959.7895,89.985190
961.6532,90.013512
963.5168,90.062058
965.3805,90.084942
967.2442,90.090003
969.1078,90.118930
970.9715,90.125132
972.8352,90.122564
974.6988,90.153721
976.5625,90.162337
978.4262,90.163339
980.2899,90.177142
982.1535,90.177011
984.0172,90.167645
985.8809,90.165363
987.7445,90.180362
989.6082,90.210298
991.4719,90.234357
993.3355,90.239491
995.1992,90.227914
997.0629,90.236887
998.9265,90.253976
1000.7902,90.256191
1002.6539,90.259981
1004.5175,90.267252
1006.3812,90.288974
1008.2449,90.314756
1010.1086,90.322871
1011.9722,90.330515
1013.8359,90.355208
1015.6996,90.371934
1017.5632,90.359710
1019.4269,90.355801
1021.2906,90.377681
1023.1542,90.411126
1025.0179,90.426033
1026.8816,90.420241
1028.7452,90.411505
1030.6089,90.435389
1032.4726,90.480359
1034.3362,90.510755
1036.1999,90.520599
1038.0636,90.529862
1039.9273,90.540056
1041.7909,90.555418
1043.6546,90.556373
1045.5183,90.543000
1047.3819,90.539514
1049.2456,90.570054
1051.1093,90.588177
1052.9729,90.592810
1054.8366,90.610286
1056.7003,90.620901
1058.5639,90.636721
1060.4276,90.671662
1062.2913,90.694808
1064.1550,90.693304
1066.0186,90.701233
1067.8823,90.753096
1069.7460,90.786118
1071.6096,90.793453
1073.4733,90.803602
1075.3370,90.815520
1077.2006,90.825609
1079.0643,90.844906
1080.9280,90.864454
1082.7916,90.889468
1084.6553,90.913195
1086.5190,90.914360
1088.3826,90.915677
1090.2463,90.917068
1092.1100,90.919325
1093.9737,90.943128
1095.8373,90.970729
1097.7010,90.982026
1099.5647,90.976888
1101.4283,90.971474
1103.2920,90.968099
1105.1557,90.972174
1107.0193,90.987365
1108.8830,91.015298
1110.7467,91.025608
1112.6103,91.016132
1114.4740,91.016542
1116.3377,91.026334
1118.2014,91.039002
1120.0650,91.055378
1121.9287,91.067981
1123.7924,91.091586
1125.6560,91.112518
1127.5197,91.113752
1129.3834,91.117019
1131.2470,91.110853
1133.1107,91.116034
1134.9744,91.143387
1136.8380,91.117296
1138.7017,91.086888
1140.5654,91.086068
1142.4290,91.106585
1144.2927,91.133640
1146.1564,91.115543
1148.0201,91.086179
1149.8837,91.114671
1151.7474,91.162505
1153.6111,91.172945
1155.4747,91.173930
1157.3384,91.199490
1159.2021,91.200930
1161.0657,91.209754
1162.9294,91.252499
1164.7931,91.296895
1166.6567,91.313737
1168.5204,91.338076
1170.3841,91.377875
1172.2477,91.402224
1174.1114,91.421551
1175.9751,91.456421
1177.8388,91.483585
1179.7024,91.511314
1181.5661,91.538582
1183.4298,91.537524
1185.2934,91.534063
1187.1571,91.549627
1189.0208,91.565384
1190.8844,91.579092
1192.7481,91.593095
1194.6118,91.595512
1196.4754,91.578312
1198.3391,91.563537
1200.2028,91.579825
1202.0665,91.602164
1203.9301,91.596206
1205.7938,91.582618
1207.6575,91.569387
1209.5211,91.579925
1211.3848,91.599309
1213.2485,91.596576
1215.1121,91.580792
1216.9758,91.586916
1218.8395,91.614034
1220.7031,91.626339
1222.5668,91.627471
1224.4305,91.638032
1226.2941,91.650355
1228.1578,91.652477
1230.0215,91.627511
1231.8852,91.624553
1233.7488,91.653030
1235.6125,91.677507
1237.4762,91.690817
1239.3398,91.699068
1241.2035,91.722336
1243.0672,91.748875
1244.9308,91.764902
1246.7945,91.770936
1248.6582,91.772501
1250.5218,91.782912
1252.3855,91.794241
1254.2492,91.808462
1256.1129,91.828000
1257.9765,91.845800
1259.8402,91.845090
1261.7039,91.851679
1263.5675,91.867694
1265.4312,91.879830
1267.2949,91.902399
1269.1585,91.936806
1271.0222,91.962999
1272.8859,91.974405
1274.7495,91.978490
1276.6132,91.969085
1278.4769,91.965177
1280.3405,92.003369
1282.2042,92.020430
1284.0679,92.014842
1285.9316,92.022569
1287.7952,92.027059
1289.6589,92.017428
1291.5226,92.015141
1293.3862,92.023959
1295.2499,92.038986
1297.1136,92.030484
1298.9772,92.020167
1300.8409,92.033143
1302.7046,92.038345
1304.5682,92.055639
1306.4319,92.055274
1308.2956,92.056044
1310.1592,92.071122
1312.0229,92.080501
1313.8866,92.081679
1315.7503,92.082352
1317.6139,92.103918
1319.4776,92.114154
1321.3413,92.101231
1323.2049,92.110051
1325.0686,92.105293
1326.9323,92.104211
1328.7959,92.131839
1330.6596,92.137642
1332.5233,92.114209
1334.3869,92.098243
1336.2506,92.117899
1338.1143,92.162095
1339.9780,92.157424
1341.8416,92.129058
1343.7053,92.141102
1345.5690,92.170968
1347.4326,92.190089
1349.2963,92.198298
1351.1600,92.204531
1353.0236,92.186981
1354.8873,92.172653
1356.7510,92.179051
1358.6146,92.190796
1360.4783,92.211431
1362.3420,92.232164
1364.2056,92.213613
1366.0693,92.213279
1367.9330,92.220179
1369.7967,92.213705
1371.6603,92.229934
1373.5240,92.258022
1375.3877,92.270312
1377.2513,92.273336
1379.1150,92.288188
1380.9787,92.302087
1382.8423,92.312676
1384.7060,92.328735
1386.5697,92.359627
1388.4333,92.319599
1390.2970,92.291449
1392.1607,92.323762
1394.0244,92.369705
1395.8880,92.386318
1397.7517,92.397305
1399.6154,92.386750
1401.4790,92.365181
1403.3427,92.399856
1405.2064,92.431315
1407.0700,92.433519
1408.9337,92.432491
1410.7974,92.435349
1412.6610,92.436400
1414.5247,92.461216
1416.3884,92.511965
1418.2520,92.546781
1420.1157,92.495686
1421.9794,92.478245
1423.8431,92.480180
1425.7067,92.447122
1427.5704,92.477676
1429.4341,92.512775
1431.2977,92.490444
1433.1614,92.485767
1435.0251,92.543873
1436.8887,92.538226
1438.7524,92.466530
1440.6161,92.488312
1442.4797,92.508845
1444.3434,92.532706
1446.2071,92.590986
1448.0707,92.593352
1449.9344,92.536790
1451.7981,92.544136
1453.6618,92.613820
1455.5254,92.714415
1457.3891,92.686234
1459.2528,92.586756
1461.1164,92.591042
1462.9801,92.653680
1464.8438,92.715406
1466.7074,92.690574
1468.5711,92.696883
1470.4348,92.758471
1472.2984,92.804863
1474.1621,92.780225
1476.0258,92.797958
1477.8895,92.823605
1479.7531,92.833409
1481.6168,92.801225
1483.4805,92.778609
1485.3441,92.806936
1487.2078,92.847752
1489.0715,92.878185
1490.9351,92.837221
1492.7988,92.799675
1494.6625,92.843978
1496.5261,92.855134
1498.3898,92.812309
1500.2535,92.796783
1502.1171,92.809605
1503.9808,92.886988
1505.8445,93.006135
1507.7082,92.917502
1509.5718,92.828807
1511.4355,92.818061
1513.2992,92.789818
1515.1628,92.837827
1517.0265,92.873116
1518.8902,92.873606
1520.7538,92.925298
1522.6175,92.888601
1524.4812,92.867767
1526.3448,92.880815
1528.2085,92.854628
1530.0722,92.855464
1531.9359,92.896578
1533.7995,92.888072
1535.6632,92.851868
1537.5269,92.959152
1539.3905,93.067350
1541.2542,92.994282
1543.1179,92.957883
1544.9815,92.947599
1546.8452,92.924954
1548.7089,92.949955
1550.5725,92.926201
1552.4362,92.917327
1554.2999,92.956196
1556.1635,92.990104
1558.0272,93.116835
1559.8909,93.027115
1561.7546,92.945628
1563.6182,93.001200
1565.4819,93.017610
1567.3456,93.059958
1569.2092,93.090210
1571.0729,93.017655
1572.9366,93.025440
1574.8002,93.103123
1576.6639,93.089876
1578.5276,93.052613
1580.3912,93.079702
1582.2549,93.084578
1584.1186,93.076568
1585.9822,93.094123
1587.8459,93.139168
1589.7096,93.155680
1591.5733,93.151251
1593.4369,93.146701
1595.3006,93.124307
1597.1643,93.107931
1599.0279,93.127149
1600.8916,93.155526
1602.7553,93.164851
1604.6189,93.170528
1606.4826,93.191313
1608.3463,93.207601
1610.2099,93.187602
1612.0736,93.169735
1613.9373,93.208024
1615.8010,93.277095
1617.6646,93.215605
1619.5283,93.177107
1621.3920,93.238351
1623.2556,93.249979
1625.1193,93.215718
1626.9830,93.236795
1628.8466,93.235049
1630.7103,93.212751
1632.5740,93.278225
1634.4376,93.400158
1636.3013,93.352109
1638.1650,93.265209
1640.0286,93.284392
1641.8923,93.276181
1643.7560,93.300565
1645.6197,93.359637
1647.4833,93.300340
1649.3470,93.248070
1651.2107,93.398997
1653.0743,93.506309
1654.9380,93.338905
1656.8017,93.302281
1658.6653,93.331330
1660.5290,93.390350
1662.3927,93.428363
1664.2563,93.355407
1666.1200,93.340882
1667.9837,93.436477
1669.8474,93.467711
1671.7110,93.392665
1673.5747,93.417886
1675.4384,93.435167
1677.3020,93.375831
1679.1657,93.375362
1681.0294,93.412562
1682.8930,93.534164
1684.7567,93.504902
1686.6204,93.378412
1688.4840,93.409860
1690.3477,93.372565
1692.2114,93.356020
1694.0750,93.470149
1695.9387,93.474633
1697.8024,93.436570
1699.6661,93.579037
1701.5297,93.458081
1703.3934,93.404104
1705.2571,93.468209
1707.1207,93.421730
1708.9844,93.398560
1710.8481,93.393579
1712.7117,93.394205
1714.5754,93.437065
1716.4391,93.479987
1718.3027,93.412657
1720.1664,93.323090
1722.0301,93.347820
1723.8937,93.363268
1725.7574,93.367912
1727.6211,93.421412
1729.4848,93.477625
1731.3484,93.595514
1733.2121,93.784865
1735.0758,93.741566
1736.9394,93.708787
1738.8031,93.841212
1740.6668,93.883897
1742.5304,93.950776
1744.3941,94.059269
1746.2578,94.101230
1748.1214,94.117389
1749.9851,94.136988
1751.8488,94.084624
1753.7125,94.052322
1755.5761,94.094550
1757.4398,94.082683
1759.3035,94.044897
1761.1671,94.047748
1763.0308,94.016511
1764.8945,93.999358
1766.7581,94.017556
1768.6218,94.053663
1770.4855,94.131134
1772.3491,94.133776
1774.2128,94.042047
1776.0765,94.014104
1777.9401,94.027207
1779.8038,94.032242
1781.6675,94.040799
1783.5312,94.072051
1785.3948,94.047590
1787.2585,94.019959
1789.1222,94.042836
1790.9858,94.082178
1792.8495,94.082023
1794.7132,94.084165
1796.5768,94.141604
1798.4405,94.161499
1800.3042,94.134872
1802.1678,94.134055
1804.0315,94.130439
1805.8952,94.125916
1807.7589,94.121137
1809.6225,94.179519
1811.4862,94.204623
1813.3499,94.126478
1815.2135,94.165852
1817.0772,94.256346
1818.9409,94.214643
1820.8045,94.141015
1822.6682,94.195946
1824.5319,94.288847
1826.3955,94.264233
1828.2592,94.260377
1830.1229,94.249820
1831.9865,94.230706
1833.8502,94.267821
1835.7139,94.240228
1837.5776,94.205733
1839.4412,94.196381
1841.3049,94.251250
1843.1686,94.375898
1845.0322,94.413447
1846.8959,94.405414
1848.7596,94.385976
1850.6232,94.332302
1852.4869,94.348281
1854.3506,94.401679
1856.2142,94.370967
1858.0779,94.330618
1859.9416,94.342840
1861.8052,94.391179
1863.6689,94.377285
1865.5326,94.372184
1867.3963,94.484027
1869.2599,94.454218
1871.1236,94.385150
1872.9873,94.473153
1874.8509,94.560651
1876.7146,94.595062
1878.5783,94.540117
1880.4419,94.447501
1882.3056,94.435741
1884.1693,94.454933
1886.0329,94.482750
1887.8966,94.492326
1889.7603,94.433945
1891.6240,94.478537
1893.4876,94.585082
1895.3513,94.552207
1897.2150,94.513817
1899.0786,94.545254
1900.9423,94.602541
1902.8060,94.695618
1904.6696,94.776245
1906.5333,94.867226
1908.3970,94.899240
1910.2606,94.748179
1912.1243,94.629911
1913.9880,94.661501
1915.8516,94.748914
1917.7153,94.747788
1919.5790,94.705669
1921.4427,94.842178
1923.3063,94.896584
1925.1700,94.789315
1927.0337,94.803027
1928.8973,94.984202
1930.7610,95.095558
1932.6247,95.050702
1934.4883,94.990452
1936.3520,94.962069
1938.2157,94.994153
1940.0793,95.110482
1941.9430,95.123075
1943.8067,95.052503
1945.6704,95.086795
1947.5340,95.137776
1949.3977,95.233428
1951.2614,95.362165
1953.1250,95.293985
1954.9887,95.289899
1956.8524,95.543381
1958.7160,95.565259
1960.5797,95.443657
1962.4434,95.523435
1964.3070,95.478841
1966.1707,95.433173
1968.0344,95.881447
1969.8980,96.316327
1971.7617,96.208388
1973.6254,96.020500
1975.4891,96.063240
1977.3527,96.218086
1979.2164,95.940855
1981.0801,95.377377
1982.9437,95.206785
1984.8074,95.451876
1986.6711,95.738145
1988.5347,95.712042
1990.3984,95.720037
1992.2621,96.036165
1994.1257,96.026319
1995.9894,95.667961
1997.8531,95.535689
1999.7167,95.715199
2001.5804,95.692002
2003.4441,95.451879
2005.3078,95.764035
2007.1714,96.355774
2009.0351,96.325057
2010.8988,96.008551
2012.7624,96.000506
2014.6261,96.099978
2016.4898,96.306782
2018.3534,96.523103
2020.2171,96.366349
2022.0808,96.033590
2023.9444,96.018676
2025.8081,96.368191
2027.6718,96.365654
2029.5355,96.005211
2031.3991,95.788582
2033.2628,96.069756
2035.1265,96.272374
2036.9901,96.069346
2038.8538,95.964362
2040.7175,95.921259
2042.5811,95.862244
2044.4448,96.007896
2046.3085,96.225987
2048.1721,96.019904
2050.0358,95.384905
2051.8995,95.332718
2053.7631,95.665973
2055.6268,95.409858
2057.4905,95.088536
2059.3542,95.032018
2061.2178,95.085281
2063.0815,95.291341
2064.9452,95.277134
2066.8088,95.204947
2068.6725,95.298531
2070.5362,95.293124
2072.3998,95.209141
2074.2635,95.183537
2076.1272,95.233586
2077.9908,95.190960
2079.8545,95.077142
2081.7182,95.002793
2083.5819,94.966827
2085.4455,95.006109
2087.3092,95.079185
2089.1729,95.177531
2091.0365,95.302208
2092.9002,95.375566
2094.7639,95.233592
2096.6275,95.113646
2098.4912,95.215544
2100.3549,95.222751
2102.2185,95.159137
2104.0822,95.251449
2105.9459,95.250683
2107.8095,95.018704
2109.6732,94.894953
2111.5369,95.017629
2113.4006,95.202144
2115.2642,95.210440
2117.1279,95.094526
2118.9916,95.199172
2120.8552,95.306787
2122.7189,95.227995
2124.5826,95.247529
2126.4462,95.435221
2128.3099,95.478444
2130.1736,95.386992
2132.0372,95.565749
2133.9009,95.821096
2135.7646,95.818652
2137.6282,95.866617
2139.4919,95.940387
2141.3556,96.098224
2143.2193,96.469147
2145.0829,96.355898
2146.9466,96.117024
2148.8103,96.127468
2150.6739,96.035756
2152.5376,96.296505
2154.4013,97.099641
2156.2649,97.702560
2158.1286,97.537836
2159.9923,96.942139
2161.8559,96.234623
2163.7196,96.042605
2165.5833,96.261558
2167.4470,96.346940
2169.3106,96.239075
2171.1743,96.219796
2173.0380,96.250292
2174.9016,96.197815
2176.7653,96.147253
2178.6290,96.069074
2180.4926,95.901680
2182.3563,95.726379
2184.2200,95.813728
2186.0836,96.038420
2187.9473,95.954486
2189.8110,95.866496
2191.6746,96.075399
2193.5383,96.022437
2195.4020,95.846693
2197.2657,95.913154
2199.1293,95.907081
2200.9930,95.735983
2202.8567,95.744006
2204.7203,95.892497
2206.5840,95.830230
2208.4477,95.471737
2210.3113,95.364124
2212.1750,95.664552
2214.0387,95.731650
2215.9023,95.650179
2217.7660,95.605826
2219.6297,95.511586
2221.4934,95.476207
2223.3570,95.453005
2225.2207,95.448048
2227.0844,95.415311
2228.9480,95.455851
2230.8117,95.400090
2232.6754,95.273425
2234.5390,95.212663
2236.4027,95.125084
2238.2664,95.280943
2240.1300,95.413653
2241.9937,95.251426
2243.8574,95.080176
2245.7210,95.281869
2247.5847,95.570267
2249.4484,95.476138
2251.3121,95.320309
2253.1757,95.478910
2255.0394,95.506724
2256.9031,95.336682
2258.7667,95.281876
2260.6304,95.253568
2262.4941,95.261196
2264.3577,95.280445
2266.2214,95.238618
2268.0851,95.153628
2269.9487,95.121432
2271.8124,95.075006
2273.6761,95.005293
2275.5397,94.993083
2277.4034,94.995080
2279.2671,94.974637
2281.1308,94.975864
2282.9944,94.982527
2284.8581,94.910838
2286.7218,94.828474
2288.5854,94.849955
2290.4491,94.888854
2292.3128,94.923174
2294.1764,94.989380
2296.0401,94.929362
2297.9038,94.890543
2299.7674,94.976458
2301.6311,94.968707
2303.4948,94.950885
2305.3585,94.984909
2307.2221,94.987574
2309.0858,94.983699
2310.9495,94.944491
2312.8131,94.905185
2314.6768,94.876070
2316.5405,94.841578
2318.4041,94.811473
2320.2678,94.751363
2322.1315,94.672835
2323.9951,94.719078
2325.8588,94.910853
2327.7225,95.024916
2329.5861,95.056817
2331.4498,95.093826
2333.3135,95.086997
2335.1772,95.054585
2337.0408,95.045390
2338.9045,95.065566
2340.7682,95.124100
2342.6318,95.180366
2344.4955,95.131302
2346.3592,95.026436
2348.2228,95.000556
2350.0865,95.064357
2351.9502,95.168141
2353.8138,95.248060
2355.6775,95.223861
2357.5412,95.210764
2359.4049,95.312234
2361.2685,95.384186
2363.1322,95.371530
2364.9959,95.332133
2366.8595,95.316990
2368.7232,95.291702
2370.5869,95.226670
2372.4505,95.198226
2374.3142,95.217269
2376.1779,95.255600
2378.0415,95.255974
2379.9052,95.235704
2381.7689,95.234096
2383.6325,95.218526
2385.4962,95.242289
2387.3599,95.292448
2389.2236,95.237825
2391.0872,95.198179
2392.9509,95.311696
2394.8146,95.381017
2396.6782,95.310746
2398.5419,95.272030
2400.4056,95.277508
2402.2692,95.250591
2404.1329,95.223994
2405.9966,95.214421
2407.8602,95.248926
2409.7239,95.279271
2411.5876,95.361015
2413.4512,95.494821
2415.3149,95.453590
2417.1786,95.347215
2419.0423,95.399022
2420.9059,95.446368
2422.7696,95.416750
2424.6333,95.387454
2426.4969,95.347751
2428.3606,95.339859
2430.2243,95.346460
2432.0879,95.334197
2433.9516,95.327922
2435.8153,95.353702
2437.6789,95.393022
2439.5426,95.373630
2441.4063,95.317633
2443.2700,95.346942
2445.1336,95.421346
2446.9973,95.437867
2448.8610,95.398651
2450.7246,95.369448
2452.5883,95.318336
2454.4520,95.354898
2456.3156,95.451288
2458.1793,95.408036
2460.0430,95.355525
2461.9066,95.360584
2463.7703,95.396911
2465.6340,95.398808
2467.4976,95.398317
2469.3613,95.446570
2471.2250,95.434451
2473.0887,95.431607
2474.9523,95.447300
2476.8160,95.442036
2478.6797,95.397967
2480.5433,95.342353
2482.4070,95.412550
2484.2707,95.472672
2486.1343,95.465681
2487.9980,95.428692
2489.8617,95.393192
2491.7253,95.471326
2493.5890,95.524591
2495.4527,95.494420
2497.3164,95.502905
2499.1800,95.467881
2501.0437,95.368169
2502.9074,95.353015
2504.7710,95.417043
2506.6347,95.489759
2508.4984,95.560613
2510.3620,95.503357
2512.2257,95.423138
2514.0894,95.427495
2515.9530,95.433117
2517.8167,95.414798
2519.6804,95.387299
2521.5440,95.412208
2523.4077,95.539913
2525.2714,95.587065
2527.1351,95.511657
2528.9987,95.529380
2530.8624,95.534424
2532.7261,95.481570
2534.5897,95.530087
2536.4534,95.594344
2538.3171,95.608754
2540.1807,95.519697
2542.0444,95.411996
2543.9081,95.469511
2545.7717,95.516074
2547.6354,95.482949
2549.4991,95.508040
2551.3627,95.499482
2553.2264,95.502571
2555.0901,95.537383
2556.9538,95.505539
2558.8174,95.512415
2560.6811,95.489196
2562.5448,95.410231
2564.4084,95.454529
2566.2721,95.487622
2568.1358,95.417921
2569.9994,95.402984
2571.8631,95.400686
2573.7268,95.401410
2575.5904,95.461336
2577.4541,95.497546
2579.3178,95.442124
2581.1815,95.433779
2583.0451,95.504916
2584.9088,95.492157
2586.7725,95.460732
2588.6361,95.477069
2590.4998,95.458155
2592.3635,95.399186
2594.2271,95.387190
2596.0908,95.400705
2597.9545,95.388384
2599.8181,95.332986
2601.6818,95.340422
2603.5455,95.473311
2605.4091,95.544605
2607.2728,95.501548
2609.1365,95.442870
2611.0002,95.397430
2612.8638,95.380515
2614.7275,95.372303
2616.5912,95.373456
2618.4548,95.399941
2620.3185,95.367263
2622.1822,95.336190
2624.0458,95.374390
2625.9095,95.357638
2627.7732,95.272889
2629.6368,95.272961
2631.5005,95.341299
2633.3642,95.344920
2635.2279,95.313523
2637.0915,95.359862
2638.9552,95.397724
2640.8189,95.350096
2642.6825,95.320820
2644.5462,95.302602
2646.4099,95.291065
2648.2735,95.330939
2650.1372,95.352718
2652.0009,95.333373
2653.8645,95.331851
2655.7282,95.341736
2657.5919,95.365069
2659.4555,95.370330
2661.3192,95.418948
2663.1829,95.468012
2665.0466,95.436535
2666.9102,95.425158
2668.7739,95.446093
2670.6376,95.441361
2672.5012,95.454527
2674.3649,95.481518
2676.2286,95.476950
2678.0922,95.469568
2679.9559,95.415412
2681.8196,95.395361
2683.6832,95.430253
2685.5469,95.454753
2687.4106,95.450551
2689.2742,95.458942
2691.1379,95.520630
2693.0016,95.552222
2694.8653,95.542264
2696.7289,95.526082
2698.5926,95.532071
2700.4563,95.599702
2702.3199,95.596538
2704.1836,95.502439
2706.0473,95.420511
2707.9109,95.418029
2709.7746,95.484435
2711.6383,95.536515
2713.5019,95.554014
2715.3656,95.565110
2717.2293,95.543621
2719.0930,95.509488
2720.9566,95.525728
2722.8203,95.509366
2724.6840,95.504373
2726.5476,95.560201
2728.4113,95.549829
2730.2750,95.533908
2732.1386,95.544870
2734.0023,95.516969
2735.8660,95.493450
2737.7296,95.549537
2739.5933,95.569361
2741.4570,95.516555
2743.3206,95.503830
2745.1843,95.531029
2747.0480,95.571917
2748.9117,95.545717
2750.7753,95.515809
2752.6390,95.525746
2754.5027,95.491213
2756.3663,95.491165
2758.2300,95.548435
2760.0937,95.552688
2761.9573,95.549416
2763.8210,95.581477
2765.6847,95.592618
2767.5483,95.547768
2769.4120,95.495026
2771.2757,95.471454
2773.1394,95.459109
2775.0030,95.481744
2776.8667,95.520229
2778.7304,95.508780
2780.5940,95.498222
2782.4577,95.503569
2784.3214,95.522826
2786.1850,95.556196
2788.0487,95.549007
2789.9124,95.548523
2791.7760,95.594502
2793.6397,95.597446
2795.5034,95.554339
2797.3670,95.512926
2799.2307,95.510672
2801.0944,95.519840
2802.9581,95.500378
2804.8217,95.469390
2806.6854,95.458093
2808.5491,95.477189
2810.4127,95.526099
2812.2764,95.536117
2814.1401,95.495124
2816.0037,95.512009
2817.8674,95.542550
2819.7311,95.552306
2821.5947,95.568148
2823.4584,95.545341
2825.3221,95.550281
2827.1857,95.571485
2829.0494,95.548865
2830.9131,95.494723
2832.7768,95.448199
2834.6404,95.443937
2836.5041,95.499270
2838.3678,95.509985
2840.2314,95.461347
2842.0951,95.459271
2843.9588,95.554779
2845.8224,95.604572
2847.6861,95.525010
2849.5498,95.461309
2851.4134,95.432547
2853.2771,95.476390
2855.1408,95.557111
2857.0045,95.582599
2858.8681,95.591550
2860.7318,95.583044
2862.5955,95.537033
2864.4591,95.472484
2866.3228,95.461993
2868.1865,95.504576
2870.0501,95.497989
2871.9138,95.486779
2873.7775,95.560119
2875.6411,95.586084
2877.5048,95.566307
2879.3685,95.583006
2881.2321,95.603449
2883.0958,95.628170
2884.9595,95.598720
2886.8232,95.534588
2888.6868,95.556251
2890.5505,95.563024
2892.4142,95.495066
2894.2778,95.464921
2896.1415,95.527867
2898.0052,95.629225
2899.8688,95.627754
2901.7325,95.592246
2903.5962,95.625142
2905.4598,95.617163
2907.3235,95.593611
2909.1872,95.616537
2911.0509,95.609905
2912.9145,95.636263
2914.7782,95.678238
2916.6419,95.647266
2918.5055,95.615492
2920.3692,95.596650
2922.2329,95.596301
2924.0965,95.619389
2925.9602,95.653975
2927.8239,95.684661
2929.6875,95.664632
2931.5512,95.587572
2933.4149,95.632026
2935.2785,95.732993
2937.1422,95.697514
2939.0059,95.654009
2940.8696,95.721168
2942.7332,95.749085
2944.5969,95.674109
2946.4606,95.643535
2948.3242,95.704004
2950.1879,95.769612
2952.0516,95.763822
2953.9152,95.721255
2955.7789,95.633993
2957.6426,95.603293
2959.5062,95.691455
2961.3699,95.747755
2963.2336,95.717026
2965.0972,95.733407
2966.9609,95.819598
2968.8246,95.849374
2970.6883,95.871613
2972.5519,95.901275
2974.4156,95.940240
2976.2793,95.978089
2978.1429,95.859085
2980.0066,95.701299
2981.8703,95.741528
2983.7339,95.858623
2985.5976,95.868188
2987.4613,95.862061
2989.3249,95.904664
2991.1886,95.886683
2993.0523,95.788295
2994.9160,95.806970
2996.7796,95.879170
2998.6433,95.912614
3000.5070,95.894204
3002.3706,95.790520
3004.2343,95.733785
3006.0980,95.818437
3007.9616,95.873286
3009.8253,95.839613
3011.6890,95.847855
3013.5526,95.854156
3015.4163,95.798671
3017.2800,95.744760
3019.1436,95.737989
3021.0073,95.827715
3022.8710,95.880646
3024.7347,95.813635
3026.5983,95.778050
3028.4620,95.738730
3030.3257,95.753821
3032.1893,95.794515
3034.0530,95.788202
3035.9167,95.811500
3037.7803,95.772797
3039.6440,95.795905
3041.5077,95.849460
3043.3713,95.896204
3045.2350,95.863068
3047.0987,95.830751
3048.9624,95.867271
3050.8260,95.874229
3052.6897,95.807206
3054.5534,95.792262
3056.4170,95.851327
3058.2807,95.833649
3060.1444,95.830336
3062.0080,95.879203
3063.8717,95.811436
3065.7354,95.752468
3067.5990,95.751102
3069.4627,95.740853
3071.3264,95.737418
3073.1900,95.784933
3075.0537,95.852374
3076.9174,95.881438
3078.7811,95.886384
3080.6447,95.867493
3082.5084,95.870116
3084.3721,95.862384
3086.2357,95.777238
3088.0994,95.813587
3089.9631,95.819473
3091.8267,95.760902
3093.6904,95.812854
3095.5541,95.829833
3097.4177,95.769891
3099.2814,95.805658
3101.1451,95.870230
3103.0087,95.827880
3104.8724,95.741618
3106.7361,95.752962
3108.5998,95.844246
3110.4634,95.936052
3112.3271,95.903536
3114.1908,95.829346
3116.0544,95.778699
3117.9181,95.755417
3119.7818,95.778098
3121.6454,95.854485
3123.5091,95.908496
3125.3728,95.851486
3127.2364,95.854912
3129.1001,95.933391
3130.9638,95.896760
3132.8275,95.736155
3134.6911,95.686627
3136.5548,95.724006
3138.4185,95.811087
3140.2821,95.875740
3142.1458,95.900316
3144.0095,95.842525
3145.8731,95.791479
3147.7368,95.884292
3149.6005,95.985005
3151.4641,95.940340
3153.3278,95.811532
3155.1915,95.742832
3157.0551,95.771355
3158.9188,95.853198
3160.7825,95.917305
3162.6462,95.878745
3164.5098,95.811467
3166.3735,95.826434
3168.2372,95.891526
3170.1008,95.897096
3171.9645,95.815638
3173.8282,95.790652
3175.6918,95.821920
3177.5555,95.840065
3179.4192,95.816057
3181.2828,95.799694
3183.1465,95.865843
3185.0102,95.935719
3186.8739,95.902341
3188.7375,95.846299
3190.6012,95.847186
3192.4649,95.836873
3194.3285,95.786201
3196.1922,95.843719
3198.0559,95.891532
3199.9195,95.864725
3201.7832,95.905104
3203.6469,95.883066
3205.5105,95.754592
3207.3742,95.824940
3209.2379,95.972256
3211.1015,95.977611
3212.9652,95.891638
3214.8289,95.836261
3216.6926,95.966975
3218.5562,96.073176
3220.4199,95.905791
3222.2836,95.828285
3224.1472,95.985817
3226.0109,96.015236
3227.8746,95.955091
3229.7382,95.927229
3231.6019,95.875402
3233.4656,95.845143
3235.3292,95.975922
3237.1929,95.950144
3239.0566,95.814441
3240.9202,95.825442
3242.7839,95.853852
3244.6476,95.967133
3246.5113,96.046657
3248.3749,96.038122
3250.2386,96.061426
3252.1023,96.036215
3253.9659,95.987884
3255.8296,95.949917
3257.6933,95.962954
3259.5569,95.969200
3261.4206,95.932178
3263.2843,95.993411
3265.1479,96.015916
3267.0116,96.013558
3268.8753,96.088995
3270.7390,96.069060
3272.6026,95.999380
3274.4663,95.996843
3276.3300,96.019955
3278.1936,96.026046
3280.0573,95.911412
3281.9210,95.908057
3283.7846,96.047696
3285.6483,96.050853
3287.5120,96.046058
3289.3756,96.118959
3291.2393,96.070638
3293.1030,95.928812
3294.9666,95.923053
3296.8303,96.038450
3298.6940,96.028266
3300.5577,96.050997
3302.4213,96.120765
3304.2850,96.106331
3306.1487,96.145093
3308.0123,96.103945
3309.8760,96.094116
3311.7397,96.136191
3313.6033,96.079871
3315.4670,96.038558
3317.3307,96.034535
3319.1943,96.089340
3321.0580,96.070139
3322.9217,96.001061
3324.7854,96.019656
3326.6490,96.067887
3328.5127,96.044215
3330.3764,96.040710
3332.2400,96.105692
3334.1037,96.071102
3335.9674,96.058631
3337.8310,96.069512
3339.6947,96.108733
3341.5584,96.170001
3343.4220,96.190344
3345.2857,96.133688
3347.1494,96.114181
3349.0130,96.141829
3350.8767,96.155875
3352.7404,96.163219
3354.6041,96.124188
3356.4677,96.036693
3358.3314,95.956573
3360.1951,95.969448
3362.0587,96.055085
3363.9224,96.229419
3365.7861,96.248872
3367.6497,96.103472
3369.5134,95.985491
3371.3771,95.984223
3373.2407,96.031461
3375.1044,96.053641
3376.9681,96.040887
3378.8317,96.147101
3380.6954,96.278846
3382.5591,96.269700
3384.4228,96.109879
3386.2864,96.126707
3388.1501,96.229050
3390.0138,96.215855
3391.8774,96.149014
3393.7411,96.093202
3395.6048,96.111717
3397.4684,96.116434
3399.3321,96.121898
3401.1958,96.171637
3403.0594,96.295720
3404.9231,96.276785
3406.7868,96.051254
3408.6505,96.049052
3410.5141,96.182284
3412.3778,96.215812
3414.2415,96.301605
3416.1051,96.450225
3417.9688,96.376330
3419.8325,96.212318
3421.6961,96.264363
3423.5598,96.272163
3425.4235,96.171299
3427.2871,96.200846
3429.1508,96.308926
3431.0145,96.280632
3432.8781,96.257042
3434.7418,96.250756
3436.6055,96.225797
3438.4692,96.285946
3440.3328,96.297003
3442.1965,96.207970
3444.0602,96.085760
3445.9238,96.116901
3447.7875,96.228866
3449.6512,96.383330
3451.5148,96.282573
3453.3785,96.120922
3455.2422,96.248001
3457.1058,96.350343
3458.9695,96.319082
3460.8332,96.265069
3462.6969,96.294795
3464.5605,96.312716
3466.4242,96.368869
3468.2879,96.407595
3470.1515,96.338800
3472.0152,96.311109
3473.8789,96.275283
3475.7425,96.278904
3477.6062,96.296563
3479.4699,96.269897
3481.3335,96.293438
3483.1972,96.325953
3485.0609,96.345203
3486.9245,96.381914
3488.7882,96.350097
3490.6519,96.356905
3492.5156,96.362768
3494.3792,96.245111
3496.2429,96.171798
3498.1066,96.253873
3499.9702,96.380728
3501.8339,96.469999
3503.6976,96.534585
3505.5612,96.479280
3507.4249,96.418608
3509.2886,96.441848
3511.1522,96.426479
3513.0159,96.369653
3514.8796,96.387692
3516.7432,96.505041
3518.6069,96.535516
3520.4706,96.482740
3522.3343,96.480607
3524.1979,96.392103
3526.0616,96.272515
3527.9253,96.313450
3529.7889,96.267226
3531.6526,96.288820
3533.5163,96.421634
3535.3799,96.401326
3537.2436,96.467173
3539.1073,96.682815
3540.9709,96.592531
3542.8346,96.400143
3544.6983,96.458758
3546.5620,96.580902
3548.4256,96.623357
3550.2893,96.468549
3552.1530,96.255767
3554.0166,96.301889
3555.8803,96.475784
3557.7440,96.555319
3559.6076,96.426465
3561.4713,96.364536
3563.3350,96.511536
3565.1986,96.547715
3567.0623,96.387117
3568.9260,96.341725
3570.7896,96.440950
3572.6533,96.550785
3574.5170,96.651293
3576.3807,96.684178
3578.2443,96.545897
3580.1080,96.438243
3581.9717,96.523153
3583.8353,96.616737
3585.6990,96.654706
3587.5627,96.597471
3589.4263,96.516922
3591.2900,96.637534
3593.1537,96.747844
3595.0173,96.719294
3596.8810,96.720880
3598.7447,96.629328
3600.6084,96.657643
3602.4720,96.643637
3604.3357,96.509794
3606.1994,96.510886
3608.0630,96.513006
3609.9267,96.531785
3611.7904,96.608948
3613.6540,96.552157
3615.5177,96.590553
3617.3814,96.664928
3619.2450,96.553399
3621.1087,96.401056
3622.9724,96.328305
3624.8360,96.476519
3626.6997,96.748488
3628.5634,96.868217
3630.4271,96.823602
3632.2907,96.826509
3634.1544,96.627163
3636.0181,96.490704
3637.8817,96.573512
3639.7454,96.643050
3641.6091,96.584569
3643.4727,96.595320
3645.3364,96.667587
3647.2001,96.804585
3649.0637,96.744264
3650.9274,96.541040
3652.7911,96.442678
3654.6547,96.634782
3656.5184,96.630336
3658.3821,96.494271
3660.2458,96.513086
3662.1094,96.560694
3663.9731,96.658917
3665.8368,96.715826
3667.7004,96.735918
3669.5641,96.711996
3671.4278,96.600884
3673.2914,96.653201
3675.1551,96.665171
3677.0188,96.526897
3678.8824,96.499991
3680.7461,96.485092
3682.6098,96.617213
3684.4735,96.703338
3686.3371,96.792128
3688.2008,96.902978
3690.0645,96.684195
3691.9281,96.464407
3693.7918,96.478238
3695.6555,96.536625
3697.5191,96.531142
3699.3828,96.524484
3701.2465,96.504018
3703.1101,96.552767
3704.9738,96.636165
3706.8375,96.621421
3708.7011,96.627887
3710.5648,96.766054
3712.4285,96.716538
3714.2922,96.554307
3716.1558,96.533175
3718.0195,96.531180
3719.8832,96.511973
3721.7468,96.527222
3723.6105,96.535998
3725.4742,96.573308
3727.3378,96.533127
3729.2015,96.549247
3731.0652,96.518590
3732.9288,96.498732
3734.7925,96.553746
3736.6562,96.478851
3738.5199,96.425291
3740.3835,96.516987
3742.2472,96.615548
3744.1109,96.624773
3745.9745,96.449272
3747.8382,96.589527
3749.7019,96.647609
3751.5655,96.460817
3753.4292,96.390544
3755.2929,96.585395
3757.1565,96.736141
3759.0202,96.715160
3760.8839,96.582070
3762.7475,96.590244
3764.6112,96.625997
3766.4749,96.472295
3768.3386,96.495286
3770.2022,96.651422
3772.0659,96.617253
3773.9296,96.559593
3775.7932,96.584252
3777.6569,96.577318
3779.5206,96.596499
3781.3842,96.628694
3783.2479,96.553261
3785.1116,96.446255
3786.9752,96.418698
3788.8389,96.553632
3790.7026,96.528332
3792.5662,96.431861
3794.4299,96.539791
3796.2936,96.644075
3798.1573,96.590427
3800.0209,96.629178
3801.8846,96.573073
3803.7483,96.576876
3805.6119,96.812455
3807.4756,96.625064
3809.3393,96.460152
3811.2029,96.603740
3813.0666,96.614628
3814.9303,96.663595
3816.7939,96.618714
3818.6576,96.576742
3820.5213,96.672361
3822.3850,96.554911
3824.2486,96.568566
3826.1123,96.646731
3827.9760,96.623321
3829.8396,96.672690
3831.7033,96.684059
3833.5670,96.668518
3835.4306,96.797977
3837.2943,96.878805
3839.1580,96.592221
3841.0216,96.578711
3842.8853,96.698673
3844.7490,96.630806
3846.6126,96.653012
3848.4763,96.717180
3850.3400,96.746404
3852.2037,96.777918
3854.0673,96.594497
3855.9310,96.417128
3857.7947,96.572794
3859.6583,96.690399
3861.5220,96.787137
3863.3857,96.779204
3865.2493,96.683194
3867.1130,96.723562
3868.9767,96.792711
3870.8403,96.685080
3872.7040,96.664856
3874.5677,96.688069
3876.4314,96.645207
3878.2950,96.748132
3880.1587,96.784324
3882.0224,96.605803
3883.8860,96.637698
3885.7497,96.762873
3887.6134,96.651031
3889.4770,96.720626
3891.3407,96.742301
3893.2044,96.601863
3895.0680,96.657216
3896.9317,96.856832
3898.7954,96.981748
3900.6590,96.903170
3902.5227,96.767813
3904.3864,96.706587
3906.2501,96.614375
3908.1137,96.637469
3909.9774,96.780393
3911.8411,96.846911
3913.7047,96.837480
3915.5684,96.869690
3917.4321,96.851220
3919.2957,96.754011
3921.1594,96.633206
3923.0231,96.632840
3924.8867,96.693661
3926.7504,96.689594
3928.6141,96.816390
3930.4777,96.918994
3932.3414,96.856018
3934.2051,96.792937
3936.0688,96.751260
3937.9324,96.712534
3939.7961,96.792594
3941.6598,96.878699
3943.5234,96.852937
3945.3871,96.851673
3947.2508,96.800653
3949.1144,96.746764
3950.9781,96.761764
3952.8418,96.848863
3954.7054,96.819936
3956.5691,96.779163
3958.4328,96.829120
3960.2965,96.782373
3962.1601,96.723377
3964.0238,96.783744
3965.8875,96.888968
3967.7511,96.865393
3969.6148,96.887997
3971.4785,96.917195
3973.3421,96.930423
3975.2058,96.907104
3977.0695,96.756556
3978.9331,96.719159
3980.7968,96.871528
3982.6605,96.898005
3984.5241,96.875935
3986.3878,96.868141
3988.2515,96.801255
3990.1152,96.879122
3991.9788,96.920798
3993.8425,96.951376
3995.7062,96.988861
3997.5698,96.965993
3999.4335,96.859297
