Wavenumber,Intensity
400.6888,45.375046
402.5525,42.338134
404.4162,43.693654
406.2798,42.346332
408.1435,42.607794
410.0072,40.422820
411.8708,41.605526
413.7345,40.465169
415.5982,40.378470
417.4618,38.854207
419.3255,39.792342
421.1892,38.713450
423.0528,39.255154
424.9165,38.183766
426.7802,38.494449
428.6439,37.655982
430.5075,37.682098
432.3712,37.344040
434.2349,37.893337
436.0985,37.584824
437.9622,37.742949
439.8259,37.385356
441.6895,37.825712
443.5532,37.592890
445.4169,37.978027
447.2805,37.688233
449.1442,37.653372
451.0079,37.395886
452.8715,37.668148
454.7352,37.547865
456.5989,37.605975
458.4626,37.112202
460.3262,37.405720
462.1899,37.395128
464.0536,37.521551
465.9172,37.399795
467.7809,37.734484
469.6446,37.504715
471.5082,37.549222
473.3719,37.228512
475.2356,37.463239
477.0992,37.356563
478.9629,37.455909
480.8266,37.247020
482.6902,37.367924
484.5539,37.230116
486.4176,37.335569
488.2813,37.022257
490.1449,36.997494
492.0086,36.883211
493.8723,36.985037
495.7359,36.968922
497.5996,37.144409
499.4633,36.998282
501.3269,36.913042
503.1906,36.771131
505.0543,36.905471
506.9179,36.847381
508.7816,37.071215
510.6453,37.167515
512.5090,37.392693
514.3726,37.418857
516.2363,37.501350
518.1000,37.316394
519.9636,37.338064
521.8273,37.391683
523.6910,37.574134
525.5546,37.550680
527.4183,37.659713
529.2820,37.633707
531.1456,37.789214
533.0093,37.753269
534.8730,37.781613
536.7366,37.752921
538.6003,37.881368
540.4640,37.809345
542.3277,37.833066
544.1913,37.710675
546.0550,37.644643
547.9187,37.480688
549.7823,37.534965
551.6460,37.454844
553.5097,37.437724
555.3733,37.372793
557.2370,37.431281
559.1007,37.464741
560.9643,37.650411
562.8280,37.816940
564.6917,38.155119
566.5554,38.192650
568.4190,38.167687
570.2827,38.159020
572.1464,38.249465
574.0100,38.202937
575.8737,38.222983
577.7374,38.148697
579.6010,38.218886
581.4647,38.298729
583.3284,38.388540
585.1920,38.367914
587.0557,38.434739
588.9194,38.420835
590.7830,38.454918
592.6467,38.435393
594.5104,38.541366
596.3741,38.528889
598.2377,38.584194
600.1014,38.561515
601.9651,38.584629
603.8287,38.559929
605.6924,38.598575
607.5561,38.647953
609.4197,38.772958
611.2834,38.790693
613.1471,38.859087
615.0107,38.931046
616.8744,39.032845
618.7381,39.089112
620.6017,39.222531
622.4654,39.361798
624.3291,39.522600
626.1928,39.600520
628.0564,39.743904
629.9201,39.816179
631.7838,39.878597
633.6474,39.916572
635.5111,40.021987
637.3748,40.083530
639.2384,40.155105
641.1021,40.173683
642.9658,40.227195
644.8294,40.227575
646.6931,40.276204
648.5568,40.295790
650.4205,40.251372
652.2841,40.154128
654.1478,40.143567
656.0115,40.125891
657.8751,40.160630
659.7388,40.169787
661.6025,40.211845
663.4661,40.260644
665.3298,40.534637
667.1935,40.660035
669.0571,40.451928
670.9208,40.648396
672.7845,40.945626
674.6481,41.121881
676.5118,41.304958
678.3755,41.464502
680.2392,41.589287
682.1028,41.634833
683.9665,41.686289
685.8302,41.692800
687.6938,41.705410
689.5575,41.681068
691.4212,41.699260
693.2848,41.711223
695.1485,41.748860
697.0122,41.731608
698.8758,41.780502
700.7395,41.816280
702.6032,41.843700
704.4669,41.884374
706.3305,41.940492
708.1942,41.940412
710.0579,41.967495
711.9215,41.993312
713.7852,42.029564
715.6489,42.065275
717.5125,42.094929
719.3762,42.090828
721.2399,42.086635
723.1035,42.064528
724.9672,42.047763
726.8309,42.030931
728.6945,41.953719
730.5582,41.824125
732.4219,41.718090
734.2856,41.633875
736.1492,41.751063
738.0129,42.029086
739.8766,42.377269
741.7402,42.637548
743.6039,42.787330
745.4676,42.867649
747.3312,42.945043
749.1949,42.995492
751.0586,43.095318
752.9222,43.166955
754.7859,43.269444
756.6496,43.348912
758.5132,43.407009
760.3769,43.487263
762.2406,43.609085
764.1043,43.665627
765.9679,43.699810
767.8316,43.737895
769.6953,43.785047
771.5589,43.812933
773.4226,43.851424
775.2863,43.846194
777.1499,43.861090
779.0136,43.848820
780.8773,43.820353
782.7409,43.791720
784.6046,43.814403
786.4683,43.815411
788.3320,43.782942
790.1956,43.730515
792.0593,43.713791
793.9230,43.670293
795.7866,43.607990
797.6503,43.507168
799.5140,43.467259
801.3776,43.441469
803.2413,43.436322
805.1050,43.428344
806.9686,43.471184
808.8323,43.542216
810.6960,43.589741
812.5596,43.595521
814.4233,43.593330
816.2870,43.568939
818.1507,43.557618
820.0143,43.547512
821.8780,43.514012
823.7417,43.442790
825.6053,43.392332
827.4690,43.335479
829.3327,43.247738
831.1963,43.116257
833.0600,43.009942
834.9237,42.931506
836.7873,42.898891
838.6510,42.971131
840.5147,43.164333
842.3784,43.419707
844.2420,43.709946
846.1057,43.935456
847.9694,44.110830
849.8330,44.172543
851.6967,44.169860
853.5604,44.150136
855.4240,44.142749
857.2877,44.119309
859.1514,44.054960
861.0150,43.943197
862.8787,43.889722
864.7424,43.835055
866.6060,43.741910
868.4697,43.631468
870.3334,43.561373
872.1971,43.479414
874.0607,43.388389
875.9244,43.300158
877.7881,43.216412
879.6517,43.096054
881.5154,42.949931
883.3791,42.798715
885.2427,42.650083
887.1064,42.478527
888.9701,42.306702
890.8337,42.123850
892.6974,41.977827
894.5611,41.874165
896.4247,41.843396
898.2884,41.846165
900.1521,41.933848
902.0158,42.066219
903.8794,42.162101
905.7431,42.205929
907.6068,42.230180
909.4704,42.199205
911.3341,42.142196
913.1978,42.053110
915.0614,41.937482
916.9251,41.769811
918.7888,41.554480
920.6524,41.314691
922.5161,41.082423
924.3798,40.804667
926.2435,40.515271
928.1071,40.248121
929.9708,39.995155
931.8345,39.759607
933.6981,39.587904
935.5618,39.459543
937.4255,39.412414
939.2891,39.443773
941.1528,39.517710
943.0165,39.575258
944.8801,39.615835
946.7438,39.591670
948.6075,39.535509
950.4711,39.444508
952.3348,39.341726
954.1985,39.193023
956.0622,38.999073
957.9258,38.776435
959.7895,38.645849
961.6532,38.620275
963.5168,38.668188
965.3805,38.738915
967.2442,38.794058
969.1078,38.798623
970.9715,38.755561
972.8352,38.614633
974.6988,38.408068
976.5625,38.160718
978.4262,37.894810
980.2899,37.631854
982.1535,37.432950
984.0172,37.305679
985.8809,37.241533
987.7445,37.172397
989.6082,37.107713
991.4719,37.032638
993.3355,36.966929
995.1992,36.862267
997.0629,36.748653
998.9265,36.654455
1000.7902,36.595364
1002.6539,36.542658
1004.5175,36.491533
1006.3812,36.389645
1008.2449,36.250322
1010.1086,36.109018
1011.9722,35.953783
1013.8359,35.769198
1015.6996,35.644460
1017.5632,35.582552
1019.4269,35.611754
1021.2906,35.712553
1023.1542,35.829432
1025.0179,35.903591
1026.8816,35.993895
1028.7452,36.124817
1030.6089,36.280997
1032.4726,36.435231
1034.3362,36.607731
1036.1999,36.780615
1038.0636,36.948192
1039.9273,37.029534
1041.7909,36.992447
1043.6546,36.877066
1045.5183,36.739389
1047.3819,36.565338
1049.2456,36.387233
1051.1093,36.223737
1052.9729,36.110471
1054.8366,36.052672
1056.7003,36.094896
1058.5639,36.289403
1060.4276,36.703047
1062.2913,37.268819
1064.1550,37.904166
1066.0186,38.533309
1067.8823,39.120493
1069.7460,39.655139
1071.6096,40.115231
1073.4733,40.443969
1075.3370,40.700165
1077.2006,40.884885
1079.0643,40.987152
1080.9280,41.010882
1082.7916,40.975557
1084.6553,40.834060
1086.5190,40.679402
1088.3826,40.554778
1090.2463,40.462653
1092.1100,40.333883
1093.9737,40.165453
1095.8373,39.960966
1097.7010,39.739371
1099.5647,39.531867
1101.4283,39.346880
1103.2920,39.166912
1105.1557,39.089879
1107.0193,39.079785
1108.8830,39.106760
1110.7467,39.193162
1112.6103,39.370086
1114.4740,39.662979
1116.3377,40.063887
1118.2014,40.516328
1120.0650,40.951309
1121.9287,41.271542
1123.7924,41.499573
1125.6560,41.642985
1127.5197,41.695141
1129.3834,41.587320
1131.2470,41.338154
1133.1107,40.949000
1134.9744,40.467269
1136.8380,39.882808
1138.7017,39.179888
1140.5654,38.378701
1142.4290,37.574300
1144.2927,36.857687
1146.1564,36.346438
1148.0201,36.009994
1149.8837,35.773319
1151.7474,35.585201
1153.6111,35.490769
1155.4747,35.556924
1157.3384,35.856502
1159.2021,36.382712
1161.0657,37.137695
1162.9294,38.045823
1164.7931,39.064138
1166.6567,40.166476
1168.5204,41.296886
1170.3841,42.401249
1172.2477,43.532892
1174.1114,44.658485
1175.9751,45.735165
1177.8388,46.734928
1179.7024,47.687217
1181.5661,48.515969
1183.4298,49.183841
1185.2934,49.711343
1187.1571,50.092294
1189.0208,50.296668
1190.8844,50.362654
1192.7481,50.319845
1194.6118,50.186242
1196.4754,50.016428
1198.3391,49.842238
1200.2028,49.646803
1202.0665,49.453991
1203.9301,49.264801
1205.7938,49.120868
1207.6575,49.015433
1209.5211,48.920352
1211.3848,48.789392
1213.2485,48.609575
1215.1121,48.370329
1216.9758,48.109551
1218.8395,47.825673
1220.7031,47.522513
1222.5668,47.230375
1224.4305,46.951367
1226.2941,46.697235
1228.1578,46.508936
1230.0215,46.373194
1231.8852,46.269224
1233.7488,46.214192
1235.6125,46.247798
1237.4762,46.339232
1239.3398,46.506271
1241.2035,46.729186
1243.0672,47.023454
1244.9308,47.373488
1246.7945,47.727271
1248.6582,48.039874
1250.5218,48.328717
1252.3855,48.605945
1254.2492,48.880968
1256.1129,49.157187
1257.9765,49.476468
1259.8402,49.821828
1261.7039,50.203997
1263.5675,50.627278
1265.4312,51.042405
1267.2949,51.426444
1269.1585,51.860815
1271.0222,52.403119
1272.8859,53.045330
1274.7495,53.725235
1276.6132,54.371815
1278.4769,54.900821
1280.3405,55.307214
1282.2042,55.588703
1284.0679,55.740437
1285.9316,55.797362
1287.7952,55.758008
1289.6589,55.600915
1291.5226,55.409108
1293.3862,55.199220
1295.2499,54.938715
1297.1136,54.648516
1298.9772,54.388369
1300.8409,54.168728
1302.7046,53.984123
1304.5682,53.817186
1306.4319,53.699749
1308.2956,53.641844
1310.1592,53.624162
1312.0229,53.602544
1313.8866,53.601147
1315.7503,53.636952
1317.6139,53.651101
1319.4776,53.634572
1321.3413,53.630255
1323.2049,53.603406
1325.0686,53.552708
1326.9323,53.503030
1328.7959,53.445690
1330.6596,53.367850
1332.5233,53.320286
1334.3869,53.351834
1336.2506,53.442218
1338.1143,53.496523
1339.9780,53.504518
1341.8416,53.628804
1343.7053,53.840730
1345.5690,53.938595
1347.4326,53.931238
1349.2963,53.836553
1351.1600,53.692336
1353.0236,53.521927
1354.8873,53.363764
1356.7510,53.247901
1358.6146,53.179020
1360.4783,53.042426
1362.3420,52.762587
1364.2056,52.553304
1366.0693,52.578825
1367.9330,52.538088
1369.7967,52.507271
1371.6603,52.632057
1373.5240,52.685601
1375.3877,52.764659
1377.2513,53.077335
1379.1150,53.459873
1380.9787,53.919839
1382.8423,54.391102
1384.7060,54.703117
1386.5697,54.663808
1388.4333,54.427135
1390.2970,54.442596
1392.1607,54.575764
1394.0244,54.580877
1395.8880,54.625870
1397.7517,54.921860
1399.6154,55.266183
1401.4790,55.744264
1403.3427,56.238973
1405.2064,56.469792
1407.0700,56.688659
1408.9337,56.846481
1410.7974,56.796018
1412.6610,56.697626
1414.5247,56.677625
1416.3884,56.523186
1418.2520,55.861148
1420.1157,55.038147
1421.9794,54.873459
1423.8431,54.538564
1425.7067,54.036310
1427.5704,53.699674
1429.4341,53.173420
1431.2977,52.780073
1433.1614,52.807333
1435.0251,52.754953
1436.8887,52.172071
1438.7524,51.934267
1440.6161,52.026680
1442.4797,51.823040
1444.3434,51.692576
1446.2071,51.632299
1448.0707,51.591827
1449.9344,51.860914
1451.7981,52.484341
1453.6618,53.127023
1455.5254,53.514959
1457.3891,53.310130
1459.2528,53.612321
1461.1164,54.372841
1462.9801,54.944452
1464.8438,55.283732
1466.7074,55.993820
1468.5711,57.164996
1470.4348,58.256219
1472.2984,58.866189
1474.1621,59.285957
1476.0258,59.835177
1477.8895,60.369218
1479.7531,60.844610
1481.6168,61.095294
1483.4805,61.291568
1485.3441,61.493566
1487.2078,61.406302
1489.0715,61.005299
1490.9351,60.713179
1492.7988,60.971179
1494.6625,61.124934
1496.5261,60.668195
1498.3898,60.368561
1500.2535,60.545896
1502.1171,60.967485
1503.9808,61.261480
1505.8445,60.544909
1507.7082,59.426879
1509.5718,59.739242
1511.4355,60.084318
1513.2992,60.205698
1515.1628,60.272840
1517.0265,60.114196
1518.8902,60.109878
1520.7538,59.812738
1522.6175,59.338759
1524.4812,59.508741
1526.3448,59.439832
1528.2085,59.416584
1530.0722,59.661633
1531.9359,59.651938
1533.7995,59.319017
1535.6632,59.624763
1537.5269,60.099261
1539.3905,59.454201
1541.2542,58.587049
1543.1179,58.630904
1544.9815,58.705752
1546.8452,58.899478
1548.7089,59.056513
1550.5725,58.987620
1552.4362,59.171887
1554.2999,59.400097
1556.1635,59.563700
1558.0272,58.828323
1559.8909,57.389341
1561.7546,58.047455
1563.6182,58.708264
1565.4819,58.765255
1567.3456,58.737960
1569.2092,58.426938
1571.0729,58.254681
1572.9366,58.666097
1574.8002,58.568763
1576.6639,57.826180
1578.5276,57.850099
1580.3912,58.136901
1582.2549,58.081570
1584.1186,58.056599
1585.9822,58.035850
1587.8459,57.990130
1589.7096,57.914429
1591.5733,57.865561
1593.4369,57.805500
1595.3006,57.718849
1597.1643,57.652025
1599.0279,57.631597
1600.8916,57.588229
1602.7553,57.521802
1604.6189,57.487090
1606.4826,57.458479
1608.3463,57.344639
1610.2099,57.299274
1612.0736,57.421738
1613.9373,57.548833
1615.8010,57.158374
1617.6646,56.583501
1619.5283,56.884417
1621.3920,57.109487
1623.2556,56.708183
1625.1193,56.502900
1626.9830,56.549009
1628.8466,56.447178
1630.7103,56.609700
1632.5740,56.892702
1634.4376,56.532059
1636.3013,55.594842
1638.1650,55.581785
1640.0286,55.941553
1641.8923,56.138653
1643.7560,56.281226
1645.6197,55.954600
1647.4833,55.460219
1649.3470,55.909692
1651.2107,56.259339
1653.0743,54.771280
1654.9380,54.065598
1656.8017,54.867915
1658.6653,55.215948
1660.5290,55.138656
1662.3927,54.788823
1664.2563,54.566702
1666.1200,54.786194
1667.9837,54.676536
1669.8474,54.049459
1671.7110,53.886985
1673.5747,53.904968
1675.4384,53.338578
1677.3020,53.137902
1679.1657,53.357560
1681.0294,53.296049
1682.8930,52.728134
1684.7567,51.381606
1686.6204,51.067021
1688.4840,51.232640
1690.3477,50.995283
1692.2114,50.929882
1694.0750,50.773808
1695.9387,49.945190
1697.8024,49.408394
1699.6661,48.818367
1701.5297,47.654757
1703.3934,47.609078
1705.2571,47.333868
1707.1207,46.759767
1708.9844,46.430757
1710.8481,46.023857
1712.7117,45.428237
1714.5754,44.482449
1716.4391,43.001005
1718.3027,41.218597
1720.1664,40.049446
1722.0301,39.501161
1723.8937,38.960044
1725.7574,38.823231
1727.6211,39.234960
1729.4848,40.141472
1731.3484,41.584502
1733.2121,43.741643
1735.0758,46.162354
1736.9394,48.446550
1738.8031,51.673439
1740.6668,55.407398
1742.5304,58.633095
1744.3941,61.711165
1746.2578,64.411708
1748.1214,66.654354
1749.9851,68.380335
1751.8488,69.449520
1753.7125,70.101604
1755.5761,70.366483
1757.4398,70.329304
1759.3035,70.207185
1761.1671,69.920160
1763.0308,69.551536
1764.8945,69.470139
1766.7581,69.305269
1768.6218,69.001088
1770.4855,68.676667
1772.3491,68.173343
1774.2128,67.865834
1776.0765,67.913267
1777.9401,67.824508
1779.8038,67.597202
1781.6675,67.394128
1783.5312,67.303250
1785.3948,67.159544
1787.2585,67.174379
1789.1222,67.220851
1790.9858,66.942687
1792.8495,66.522740
1794.7132,66.536972
1796.5768,66.636099
1798.4405,66.531725
1800.3042,66.321174
1802.1678,66.193363
1804.0315,66.221690
1805.8952,66.256537
1807.7589,66.215821
1809.6225,66.159724
1811.4862,66.088643
1813.3499,66.068039
1815.2135,66.106054
1817.0772,66.086622
1818.9409,65.970064
1820.8045,65.932429
1822.6682,65.981746
1824.5319,65.925097
1826.3955,65.819221
1828.2592,65.800855
1830.1229,65.653295
1831.9865,65.591136
1833.8502,65.701086
1835.7139,65.734279
1837.5776,65.666843
1839.4412,65.706160
1841.3049,65.835318
1843.1686,65.675244
1845.0322,65.368223
1846.8959,65.401391
1848.7596,65.492221
1850.6232,65.526159
1852.4869,65.560608
1854.3506,65.553470
1856.2142,65.541437
1858.0779,65.513243
1859.9416,65.469245
1861.8052,65.458537
1863.6689,65.546217
1865.5326,65.621210
1867.3963,65.520969
1869.2599,65.367000
1871.1236,65.374115
1872.9873,65.464515
1874.8509,65.472840
1876.7146,65.501183
1878.5783,65.567657
1880.4419,65.581623
1882.3056,65.591215
1884.1693,65.605377
1886.0329,65.589194
1887.8966,65.569135
1889.7603,65.548129
1891.6240,65.580205
1893.4876,65.594832
1895.3513,65.586275
1897.2150,65.619523
1899.0786,65.730627
1900.9423,65.815660
1902.8060,65.779680
1904.6696,65.772323
1906.5333,65.826593
1908.3970,65.863673
1910.2606,65.953290
1912.1243,65.969176
1913.9880,65.969163
1915.8516,66.102255
1917.7153,66.255893
1919.5790,66.338385
1921.4427,66.352508
1923.3063,66.373012
1925.1700,66.439594
1927.0337,66.518537
1928.8973,66.659672
1930.7610,66.756069
1932.6247,66.833015
1934.4883,66.930106
1936.3520,67.189903
1938.2157,67.407117
1940.0793,67.516629
1941.9430,67.785653
1943.8067,67.907397
1945.6704,67.824594
1947.5340,67.930336
1949.3977,68.192380
1951.2614,68.527509
1953.1250,68.736443
1954.9887,68.883972
1956.8524,69.200502
1958.7160,69.550370
1960.5797,69.785364
1962.4434,70.141330
1964.3070,70.469350
1966.1707,70.553063
1968.0344,70.683983
1969.8980,71.280837
1971.7617,71.582890
1973.6254,71.479364
1975.4891,71.593599
1977.3527,71.756138
1979.2164,71.386675
1981.0801,70.724203
1982.9437,70.391103
1984.8074,70.289079
1986.6711,70.322305
1988.5347,70.441012
1990.3984,70.132931
1992.2621,69.966762
1994.1257,70.049811
1995.9894,70.168029
1997.8531,70.220266
1999.7167,70.303984
2001.5804,70.466971
2003.4441,70.939102
2005.3078,71.429494
2007.1714,71.447664
2009.0351,71.458797
2010.8988,71.628481
2012.7624,71.586054
2014.6261,71.520723
2016.4898,71.700748
2018.3534,72.024008
2020.2171,71.945539
2022.0808,72.044067
2023.9444,72.095870
2025.8081,71.963221
2027.6718,72.238265
2029.5355,72.645990
2031.3991,72.538753
2033.2628,72.123251
2035.1265,71.727030
2036.9901,71.384672
2038.8538,71.084412
2040.7175,70.841362
2042.5811,70.527662
2044.4448,70.248214
2046.3085,69.819717
2048.1721,69.321312
2050.0358,68.704122
2051.8995,68.300415
2053.7631,68.342962
2055.6268,68.331123
2057.4905,67.965987
2059.3542,67.700709
2061.2178,67.628673
2063.0815,67.452931
2064.9452,67.334074
2066.8088,67.247999
2068.6725,67.011510
2070.5362,66.949566
2072.3998,66.951430
2074.2635,66.877955
2076.1272,66.782458
2077.9908,66.589672
2079.8545,66.410280
2081.7182,66.346920
2083.5819,66.237305
2085.4455,66.204345
2087.3092,66.275758
2089.1729,66.312644
2091.0365,66.363266
2092.9002,66.439938
2094.7639,66.426205
2096.6275,66.280723
2098.4912,66.103669
2100.3549,66.102443
2102.2185,66.191913
2104.0822,66.219940
2105.9459,66.176897
2107.8095,66.083733
2109.6732,66.024376
2111.5369,65.942891
2113.4006,65.911337
2115.2642,65.962907
2117.1279,66.107362
2118.9916,66.324534
2120.8552,66.392562
2122.7189,66.365327
2124.5826,66.483092
2126.4462,66.795107
2128.3099,67.056439
2130.1736,67.254979
2132.0372,67.596175
2133.9009,67.984351
2135.7646,68.313262
2137.6282,68.658626
2139.4919,68.909156
2141.3556,69.029900
2143.2193,69.360274
2145.0829,69.833953
2146.9466,70.127438
2148.8103,70.357113
2150.6739,70.947410
2152.5376,71.792090
2154.4013,72.465861
2156.2649,73.611809
2158.1286,74.059393
2159.9923,72.918257
2161.8559,72.290321
2163.7196,72.051936
2165.5833,71.723964
2167.4470,71.447314
2169.3106,71.076274
2171.1743,70.909354
2173.0380,70.881154
2174.9016,70.691872
2176.7653,70.518266
2178.6290,70.704825
2180.4926,70.712166
2182.3563,70.220449
2184.2200,69.688676
2186.0836,69.450287
2187.9473,69.585013
2189.8110,69.685795
2191.6746,69.396726
2193.5383,69.138514
2195.4020,69.014664
2197.2657,68.824404
2199.1293,68.672479
2200.9930,68.523384
2202.8567,68.484024
2204.7203,68.442085
2206.5840,68.307692
2208.4477,68.212270
2210.3113,68.027519
2212.1750,67.924124
2214.0387,68.057276
2215.9023,68.091051
2217.7660,67.890788
2219.6297,67.723368
2221.4934,67.610885
2223.3570,67.399116
2225.2207,67.197387
2227.0844,67.274447
2228.9480,67.228911
2230.8117,67.047478
2232.6754,66.912272
2234.5390,66.742692
2236.4027,66.737324
2238.2664,66.742759
2240.1300,66.583377
2241.9937,66.367316
2243.8574,66.293576
2245.7210,66.268355
2247.5847,66.108087
2249.4484,65.939843
2251.3121,65.945703
2253.1757,66.032461
2255.0394,65.959071
2256.9031,65.786456
2258.7667,65.651070
2260.6304,65.561689
2262.4941,65.428145
2264.3577,65.295040
2266.2214,65.299822
2268.0851,65.265066
2269.9487,65.150878
2271.8124,65.039452
2273.6761,64.865899
2275.5397,64.694814
2277.4034,64.640304
2279.2671,64.506804
2281.1308,64.291606
2282.9944,64.208909
2284.8581,64.176571
2286.7218,64.109560
2288.5854,63.965521
2290.4491,63.844546
2292.3128,63.872560
2294.1764,63.887154
2296.0401,63.839873
2297.9038,63.783004
2299.7674,63.721215
2301.6311,63.721991
2303.4948,63.702212
2305.3585,63.652400
2307.2221,63.676840
2309.0858,63.713765
2310.9495,63.681731
2312.8131,63.560071
2314.6768,63.457622
2316.5405,63.409491
2318.4041,63.314262
2320.2678,63.208120
2322.1315,63.110669
2323.9951,63.134897
2325.8588,63.341398
2327.7225,63.480782
2329.5861,63.491269
2331.4498,63.501763
2333.3135,63.502450
2335.1772,63.454277
2337.0408,63.373702
2338.9045,63.298872
2340.7682,63.236121
2342.6318,63.173559
2344.4955,63.124131
2346.3592,63.250812
2348.2228,63.594556
2350.0865,63.894266
2351.9502,63.991972
2353.8138,63.905613
2355.6775,63.797150
2357.5412,63.801348
2359.4049,63.812061
2361.2685,63.765258
2363.1322,63.711318
2364.9959,63.713094
2366.8595,63.666818
2368.7232,63.539256
2370.5869,63.478384
2372.4505,63.450201
2374.3142,63.430246
2376.1779,63.525253
2378.0415,63.658423
2379.9052,63.653686
2381.7689,63.611766
2383.6325,63.695470
2385.4962,63.775096
2387.3599,63.798801
2389.2236,63.827152
2391.0872,63.829991
2392.9509,63.844326
2394.8146,63.891432
2396.6782,63.942261
2398.5419,63.944959
2400.4056,63.978749
2402.2692,64.043383
2404.1329,64.071606
2405.9966,64.074650
2407.8602,64.007525
2409.7239,63.973689
2411.5876,64.031019
2413.4512,64.086218
2415.3149,64.099701
2417.1786,64.048108
2419.0423,64.058939
2420.9059,64.146782
2422.7696,64.193040
2424.6333,64.238596
2426.4969,64.231817
2428.3606,64.163909
2430.2243,64.151690
2432.0879,64.190806
2433.9516,64.229016
2435.8153,64.198488
2437.6789,64.224829
2439.5426,64.303066
2441.4063,64.307938
2443.2700,64.268680
2445.1336,64.180102
2446.9973,64.195482
2448.8610,64.272025
2450.7246,64.273328
2452.5883,64.263340
2454.4520,64.227812
2456.3156,64.197671
2458.1793,64.192231
2460.0430,64.212156
2461.9066,64.283022
2463.7703,64.290843
2465.6340,64.254209
2467.4976,64.263322
2469.3613,64.300777
2471.2250,64.337280
2473.0887,64.338904
2474.9523,64.260199
2476.8160,64.198952
2478.6797,64.265630
2480.5433,64.330097
2482.4070,64.333182
2484.2707,64.334954
2486.1343,64.347858
2487.9980,64.340725
2489.8617,64.280608
2491.7253,64.264007
2493.5890,64.329759
2495.4527,64.373174
2497.3164,64.362791
2499.1800,64.318462
2501.0437,64.286730
2502.9074,64.309654
2504.7710,64.306759
2506.6347,64.280264
2508.4984,64.274339
2510.3620,64.314188
2512.2257,64.334521
2514.0894,64.304521
2515.9530,64.345413
2517.8167,64.455736
2519.6804,64.432138
2521.5440,64.264379
2523.4077,64.202371
2525.2714,64.271773
2527.1351,64.262316
2528.9987,64.250560
2530.8624,64.346583
2532.7261,64.391356
2534.5897,64.289209
2536.4534,64.241281
2538.3171,64.301359
2540.1807,64.288532
2542.0444,64.189300
2543.9081,64.158638
2545.7717,64.200428
2547.6354,64.247867
2549.4991,64.246087
2551.3627,64.221816
2553.2264,64.212640
2555.0901,64.118152
2556.9538,64.015514
2558.8174,64.074348
2560.6811,64.108203
2562.5448,64.124738
2564.4084,64.165698
2566.2721,64.074083
2568.1358,63.979917
2569.9994,63.993124
2571.8631,63.997239
2573.7268,63.944175
2575.5904,63.904215
2577.4541,63.892978
2579.3178,63.923982
2581.1815,63.910547
2583.0451,63.819359
2584.9088,63.778211
2586.7725,63.791701
2588.6361,63.752087
2590.4998,63.701831
2592.3635,63.722453
2594.2271,63.756012
2596.0908,63.724758
2597.9545,63.616899
2599.8181,63.526906
2601.6818,63.554707
2603.5455,63.616679
2605.4091,63.577734
2607.2728,63.472984
2609.1365,63.392944
2611.0002,63.383118
2612.8638,63.380124
2614.7275,63.368492
2616.5912,63.324283
2618.4548,63.264294
2620.3185,63.213416
2622.1822,63.242194
2624.0458,63.231417
2625.9095,63.135533
2627.7732,63.110091
2629.6368,63.097872
2631.5005,63.034901
2633.3642,62.999956
2635.2279,62.991615
2637.0915,62.938351
2638.9552,62.899103
2640.8189,62.892861
2642.6825,62.842502
2644.5462,62.788475
2646.4099,62.740827
2648.2735,62.726597
2650.1372,62.701471
2652.0009,62.645942
2653.8645,62.642504
2655.7282,62.670263
2657.5919,62.654277
2659.4555,62.660911
2661.3192,62.700987
2663.1829,62.736380
2665.0466,62.743911
2666.9102,62.712474
2668.7739,62.704934
2670.6376,62.741325
2672.5012,62.748197
2674.3649,62.735384
2676.2286,62.750292
2678.0922,62.753342
2679.9559,62.738042
2681.8196,62.729009
2683.6832,62.743071
2685.5469,62.729700
2687.4106,62.681274
2689.2742,62.695724
2691.1379,62.696981
2693.0016,62.681055
2694.8653,62.702040
2696.7289,62.710626
2698.5926,62.724731
2700.4563,62.709027
2702.3199,62.630912
2704.1836,62.650683
2706.0473,62.705119
2707.9109,62.689641
2709.7746,62.654090
2711.6383,62.639383
2713.5019,62.606144
2715.3656,62.568241
2717.2293,62.563700
2719.0930,62.574848
2720.9566,62.579369
2722.8203,62.567514
2724.6840,62.545266
2726.5476,62.528922
2728.4113,62.479064
2730.2750,62.461906
2732.1386,62.478297
2734.0023,62.497002
2735.8660,62.509520
2737.7296,62.500595
2739.5933,62.496067
2741.4570,62.487470
2743.3206,62.490913
2745.1843,62.538508
2747.0480,62.540843
2748.9117,62.559281
2750.7753,62.538160
2752.6390,62.497236
2754.5027,62.449337
2756.3663,62.382710
2758.2300,62.341135
2760.0937,62.334368
2761.9573,62.280982
2763.8210,62.306886
2765.6847,62.375916
2767.5483,62.354052
2769.4120,62.289483
2771.2757,62.251672
2773.1394,62.253936
2775.0030,62.208914
2776.8667,62.097474
2778.7304,62.071651
2780.5940,62.091111
2782.4577,62.081174
2784.3214,62.058979
2786.1850,62.024689
2788.0487,61.954827
2789.9124,61.905677
2791.7760,61.862463
2793.6397,61.793532
2795.5034,61.710001
2797.3670,61.717852
2799.2307,61.706781
2801.0944,61.610743
2802.9581,61.501272
2804.8217,61.414111
2806.6854,61.330323
2808.5491,61.331175
2810.4127,61.288772
2812.2764,61.181313
2814.1401,61.102694
2816.0037,61.032305
2817.8674,60.926505
2819.7311,60.864132
2821.5947,60.800648
2823.4584,60.668962
2825.3221,60.510655
2827.1857,60.406921
2829.0494,60.302254
2830.9131,60.181130
2832.7768,60.010062
2834.6404,59.829734
2836.5041,59.632167
2838.3678,59.384977
2840.2314,59.124608
2842.0951,58.905248
2843.9588,58.670719
2845.8224,58.508730
2847.6861,58.385094
2849.5498,58.233965
2851.4134,58.020980
2853.2771,57.802404
2855.1408,57.581082
2857.0045,57.342936
2858.8681,57.037032
2860.7318,56.751471
2862.5955,56.467847
2864.4591,56.262675
2866.3228,56.151613
2868.1865,56.138195
2870.0501,56.117248
2871.9138,56.200215
2873.7775,56.477641
2875.6411,56.958844
2877.5048,57.482364
2879.3685,57.970858
2881.2321,58.302073
2883.0958,58.446204
2884.9595,58.406819
2886.8232,58.215745
2888.6868,57.904543
2890.5505,57.751141
2892.4142,57.671183
2894.2778,57.540531
2896.1415,57.380821
2898.0052,57.322087
2899.8688,57.241239
2901.7325,57.151579
2903.5962,57.135696
2905.4598,57.038589
2907.3235,56.885288
2909.1872,56.798645
2911.0509,56.692059
2912.9145,56.624574
2914.7782,56.527549
2916.6419,56.439657
2918.5055,56.297072
2920.3692,56.129068
2922.2329,55.966572
2924.0965,55.860006
2925.9602,55.817360
2927.8239,55.855870
2929.6875,55.858991
2931.5512,55.966384
2933.4149,56.223286
2935.2785,56.577633
2937.1422,56.952663
2939.0059,57.307813
2940.8696,57.447491
2942.7332,57.484395
2944.5969,57.376773
2946.4606,57.084252
2948.3242,56.799889
2950.1879,56.580594
2952.0516,56.255434
2953.9152,56.063185
2955.7789,56.155315
2957.6426,56.600972
2959.5062,57.302763
2961.3699,58.272392
2963.2336,59.292746
2965.0972,60.369864
2966.9609,61.493006
2968.8246,62.579693
2970.6883,63.485013
2972.5519,64.216747
2974.4156,64.833046
2976.2793,65.352313
2978.1429,65.721101
2980.0066,66.021155
2981.8703,66.281732
2983.7339,66.469910
2985.5976,66.591522
2987.4613,66.741190
2989.3249,66.831210
2991.1886,66.868944
2993.0523,66.909298
2994.9160,66.969654
2996.7796,66.954589
2998.6433,66.888266
3000.5070,66.830189
3002.3706,66.808532
3004.2343,66.798689
3006.0980,66.840193
3007.9616,66.814661
3009.8253,66.700455
3011.6890,66.577067
3013.5526,66.509145
3015.4163,66.459724
3017.2800,66.500149
3019.1436,66.447907
3021.0073,66.403217
3022.8710,66.341673
3024.7347,66.261212
3026.5983,66.176161
3028.4620,66.165788
3030.3257,66.107802
3032.1893,66.053518
3034.0530,66.077713
3035.9167,66.106687
3037.7803,66.000310
3039.6440,65.904721
3041.5077,65.844104
3043.3713,65.836127
3045.2350,65.758080
3047.0987,65.693335
3048.9624,65.714958
3050.8260,65.731466
3052.6897,65.627690
3054.5534,65.575403
3056.4170,65.608887
3058.2807,65.626811
3060.1444,65.493296
3062.0080,65.369766
3063.8717,65.311099
3065.7354,65.372380
3067.5990,65.353311
3069.4627,65.326827
3071.3264,65.333243
3073.1900,65.333570
3075.0537,65.329498
3076.9174,65.293985
3078.7811,65.191625
3080.6447,65.137128
3082.5084,65.135439
3084.3721,65.158163
3086.2357,65.003399
3088.0994,64.964447
3089.9631,64.982769
3091.8267,64.858873
3093.6904,64.731431
3095.5541,64.819970
3097.4177,64.860413
3099.2814,64.854158
3101.1451,64.826510
3103.0087,64.818362
3104.8724,64.752884
3106.7361,64.730900
3108.5998,64.695235
3110.4634,64.662129
3112.3271,64.730204
3114.1908,64.798260
3116.0544,64.589738
3117.9181,64.487886
3119.7818,64.525048
3121.6454,64.486603
3123.5091,64.387339
3125.3728,64.387025
3127.2364,64.370728
3129.1001,64.327970
3130.9638,64.238139
3132.8275,64.211106
3134.6911,64.100081
3136.5548,64.043263
3138.4185,64.030738
3140.2821,64.007105
3142.1458,63.931058
3144.0095,63.961213
3145.8731,63.941793
3147.7368,63.945956
3149.6005,63.973559
3151.4641,63.965222
3153.3278,63.891307
3155.1915,63.768878
3157.0551,63.628070
3158.9188,63.593643
3160.7825,63.591878
3162.6462,63.620685
3164.5098,63.594916
3166.3735,63.566518
3168.2372,63.529201
3170.1008,63.543861
3171.9645,63.403558
3173.8282,63.353452
3175.6918,63.335914
3177.5555,63.278414
3179.4192,63.259495
3181.2828,63.292512
3183.1465,63.250483
3185.0102,63.225703
3186.8739,63.156642
3188.7375,63.110742
3190.6012,63.067948
3192.4649,63.064455
3194.3285,63.020195
3196.1922,62.935885
3198.0559,62.863431
3199.9195,62.796494
3201.7832,62.721619
3203.6469,62.831499
3205.5105,62.781454
3207.3742,62.702469
3209.2379,62.654141
3211.1015,62.692237
3212.9652,62.678835
3214.8289,62.662185
3216.6926,62.594404
3218.5562,62.493116
3220.4199,62.366394
3222.2836,62.436648
3224.1472,62.412020
3226.0109,62.368154
3227.8746,62.379061
3229.7382,62.430306
3231.6019,62.419800
3233.4656,62.355253
3235.3292,62.206920
3237.1929,62.187944
3239.0566,62.101839
3240.9202,62.006516
3242.7839,62.070026
3244.6476,62.167325
3246.5113,62.134539
3248.3749,62.128922
3250.2386,61.952396
3252.1023,61.878533
3253.9659,61.899003
3255.8296,61.963488
3257.6933,61.924941
3259.5569,61.850598
3261.4206,61.742212
3263.2843,61.720112
3265.1479,61.716400
3267.0116,61.759806
3268.8753,61.717582
3270.7390,61.747347
3272.6026,61.747435
3274.4663,61.737724
3276.3300,61.696270
3278.1936,61.700470
3280.0573,61.669785
3281.9210,61.707707
3283.7846,61.696469
3285.6483,61.737934
3287.5120,61.752110
3289.3756,61.751807
3291.2393,61.770138
3293.1030,61.873139
3294.9666,61.824450
3296.8303,61.794005
3298.6940,61.840300
3300.5577,61.942537
3302.4213,61.946913
3304.2850,61.982232
3306.1487,61.983973
3308.0123,62.026443
3309.8760,62.007541
3311.7397,62.086151
3313.6033,62.104856
3315.4670,62.068095
3317.3307,61.964260
3319.1943,61.992158
3321.0580,62.015326
3322.9217,62.100115
3324.7854,62.080957
3326.6490,62.052916
3328.5127,62.046578
3330.3764,62.118859
3332.2400,62.128533
3334.1037,62.203213
3335.9674,62.210069
3337.8310,62.267861
3339.6947,62.333552
3341.5584,62.400387
3343.4220,62.354671
3345.2857,62.394876
3347.1494,62.414410
3349.0130,62.541299
3350.8767,62.667084
3352.7404,62.770557
3354.6041,62.735029
3356.4677,62.708903
3358.3314,62.771995
3360.1951,62.928984
3362.0587,62.981995
3363.9224,63.074196
3365.7861,63.083355
3367.6497,63.150727
3369.5134,63.262972
3371.3771,63.306652
3373.2407,63.301448
3375.1044,63.297374
3376.9681,63.118034
3378.8317,63.230018
3380.6954,63.296745
3382.5591,63.301364
3384.4228,63.296056
3386.2864,63.426316
3388.1501,63.504819
3390.0138,63.588176
3391.8774,63.670842
3393.7411,63.672437
3395.6048,63.538189
3397.4684,63.523133
3399.3321,63.703558
3401.1958,63.968391
3403.0594,63.874708
3404.9231,63.869040
3406.7868,63.918983
3408.6505,64.010610
3410.5141,64.030571
3412.3778,63.994054
3414.2415,63.901579
3416.1051,63.980533
3417.9688,63.947975
3419.8325,64.059508
3421.6961,64.133336
3423.5598,64.135147
3425.4235,64.128796
3427.2871,64.249944
3429.1508,64.321150
3431.0145,64.368902
3432.8781,64.368346
3434.7418,64.530011
3436.6055,64.564144
3438.4692,64.591898
3440.3328,64.549767
3442.1965,64.458600
3444.0602,64.412210
3445.9238,64.621900
3447.7875,64.632741
3449.6512,64.645012
3451.5148,64.805536
3453.3785,64.958653
3455.2422,65.030645
3457.1058,65.103092
3458.9695,65.077202
3460.8332,65.191770
3462.6969,65.265613
3464.5605,65.322297
3466.4242,65.340657
3468.2879,65.486283
3470.1515,65.535310
3472.0152,65.472242
3473.8789,65.491442
3475.7425,65.665508
3477.6062,65.865585
3479.4699,66.025052
3481.3335,65.886387
3483.1972,65.860521
3485.0609,66.040495
3486.9245,66.161192
3488.7882,66.209095
3490.6519,66.415696
3492.5156,66.366654
3494.3792,66.345136
3496.2429,66.386811
3498.1066,66.471565
3499.9702,66.356656
3501.8339,66.370782
3503.6976,66.547653
3505.5612,66.668450
3507.4249,66.669579
3509.2886,66.751340
3511.1522,66.811672
3513.0159,66.909368
3514.8796,66.821300
3516.7432,66.846527
3518.6069,66.941464
3520.4706,67.025525
3522.3343,67.034901
3524.1979,67.106894
3526.0616,67.106369
3527.9253,67.132723
3529.7889,67.053561
3531.6526,67.217516
3533.5163,67.310377
3535.3799,67.323267
3537.2436,67.353513
3539.1073,67.403693
3540.9709,67.403128
3542.8346,67.418008
3544.6983,67.242927
3546.5620,67.262879
3548.4256,67.427601
3550.2893,67.535083
3552.1530,67.497415
3554.0166,67.526554
3555.8803,67.543713
3557.7440,67.675095
3559.6076,67.773036
3561.4713,67.908656
3563.3350,67.953734
3565.1986,67.847095
3567.0623,67.569040
3568.9260,67.652413
3570.7896,67.768636
3572.6533,67.968621
3574.5170,68.034144
3576.3807,67.911652
3578.2443,67.899648
3580.1080,68.092622
3581.9717,68.188416
3583.8353,68.330742
3585.6990,68.284553
3587.5627,68.177845
3589.4263,68.067214
3591.2900,68.263351
3593.1537,68.231104
3595.0173,68.158191
3596.8810,68.114324
3598.7447,68.283051
3600.6084,68.405799
3602.4720,68.472759
3604.3357,68.418151
3606.1994,68.469577
3608.0630,68.390903
3609.9267,68.354699
3611.7904,68.332607
3613.6540,68.300612
3615.5177,68.380054
3617.3814,68.634381
3619.2450,68.529333
3621.1087,68.547534
3622.9724,68.668325
3624.8360,68.729447
3626.6997,68.612704
3628.5634,68.432281
3630.4271,68.221186
3632.2907,68.438926
3634.1544,68.597004
3636.0181,68.696710
3637.8817,68.708939
3639.7454,68.768580
3641.6091,68.840463
3643.4727,69.009262
3645.3364,69.018330
3647.2001,68.806141
3649.0637,68.314588
3650.9274,68.209360
3652.7911,68.411945
3654.6547,68.663832
3656.5184,68.656130
3658.3821,68.760735
3660.2458,68.835490
3662.1094,68.892832
3663.9731,68.925231
3665.8368,68.999084
3667.7004,69.003670
3669.5641,69.127706
3671.4278,68.877493
3673.2914,68.709945
3675.1551,68.620411
3677.0188,68.518464
3678.8824,68.579242
3680.7461,68.882932
3682.6098,69.050476
3684.4735,69.124765
3686.3371,68.910037
3688.2008,68.690156
3690.0645,68.410385
3691.9281,68.483404
3693.7918,68.708468
3695.6555,68.828204
3697.5191,68.712650
3699.3828,68.626274
3701.2465,68.629504
3703.1101,68.770543
3704.9738,68.877761
3706.8375,68.878620
3708.7011,68.653288
3710.5648,68.581055
3712.4285,68.492996
3714.2922,68.520678
3716.1558,68.700442
3718.0195,68.870598
3719.8832,68.771318
3721.7468,68.643547
3723.6105,68.548076
3725.4742,68.727484
3727.3378,68.746483
3729.2015,68.778100
3731.0652,68.729141
3732.9288,68.562609
3734.7925,68.368254
3736.6562,68.492880
3738.5199,68.901543
3740.3835,69.153089
3742.2472,69.042044
3744.1109,68.889407
3745.9745,68.362749
3747.8382,68.452816
3749.7019,68.480453
3751.5655,68.145303
3753.4292,68.012264
3755.2929,68.206131
3757.1565,68.447690
3759.0202,68.637659
3760.8839,68.522406
3762.7475,68.562208
3764.6112,68.539633
3766.4749,68.391488
3768.3386,68.323922
3770.2022,68.356454
3772.0659,68.371713
3773.9296,68.476152
3775.7932,68.408187
3777.6569,68.445896
3779.5206,68.490610
3781.3842,68.441742
3783.2479,68.401022
3785.1116,68.489809
3786.9752,68.473381
3788.8389,68.431433
3790.7026,68.416889
3792.5662,68.580457
3794.4299,68.680416
3796.2936,68.652579
3798.1573,68.496095
3800.0209,68.521546
3801.8846,68.328421
3803.7483,68.213715
3805.6119,68.436842
3807.4756,68.515932
3809.3393,68.417997
3811.2029,68.538008
3813.0666,68.608549
3814.9303,68.607952
3816.7939,68.330491
3818.6576,68.289089
3820.5213,68.321827
3822.3850,68.256406
3824.2486,68.296269
3826.1123,68.613149
3827.9760,68.609080
3829.8396,68.542355
3831.7033,68.589244
3833.5670,68.617686
3835.4306,68.498852
3837.2943,68.418060
3839.1580,68.305357
3841.0216,68.322347
3842.8853,68.437731
3844.7490,68.580562
3846.6126,68.737555
3848.4763,68.924438
3850.3400,68.826943
3852.2037,68.540305
3854.0673,68.031438
3855.9310,67.969571
3857.7947,68.446251
3859.6583,68.889524
3861.5220,68.856248
3863.3857,68.656965
3865.2493,68.436641
3867.1130,68.494182
3868.9767,68.609933
3870.8403,68.515950
3872.7040,68.503084
3874.5677,68.618675
3876.4314,68.622168
3878.2950,68.756661
3880.1587,68.644597
3882.0224,68.423739
3883.8860,68.455845
3885.7497,68.648397
3887.6134,68.520259
3889.4770,68.610010
3891.3407,68.666931
3893.2044,68.588951
3895.0680,68.673015
3896.9317,68.820525
3898.7954,68.782368
3900.6590,68.692427
3902.5227,68.448520
3904.3864,68.361867
3906.2501,68.415953
3908.1137,68.511585
3909.9774,68.597204
3911.8411,68.739910
3913.7047,68.731051
3915.5684,68.696995
3917.4321,68.614307
3919.2957,68.591169
3921.1594,68.529442
3923.0231,68.630885
3924.8867,68.625786
3926.7504,68.565363
3928.6141,68.598249
3930.4777,68.705988
3932.3414,68.632392
3934.2051,68.659918
3936.0688,68.648908
3937.9324,68.799570
3939.7961,68.875382
3941.6598,68.826134
3943.5234,68.680550
3945.3871,68.645230
3947.2508,68.615736
3949.1144,68.643698
3950.9781,68.706068
3952.8418,68.820130
3954.7054,68.809304
3956.5691,68.729850
3958.4328,68.727167
3960.2965,68.793090
3962.1601,68.800234
3964.0238,68.847660
3965.8875,68.792563
3967.7511,68.783554
3969.6148,68.728984
3971.4785,68.784274
3973.3421,68.780061
3975.2058,68.692929
3977.0695,68.704163
3978.9331,68.867703
3980.7968,68.850963
3982.6605,68.832977
3984.5241,68.799137
3986.3878,68.836413
3988.2515,68.853581
3990.1152,68.930442
3991.9788,68.821471
3993.8425,68.807052
3995.7062,68.836786
3997.5698,68.772843
3999.4335,68.690473
