Wavenumber,Intensity
400.6888,23.921102
402.5525,19.908053
404.4162,22.324277
406.2798,20.738822
408.1435,23.826816
410.0072,21.468672
411.8708,21.593776
413.7345,20.288199
415.5982,21.171092
417.4618,19.455726
419.3255,19.657108
421.1892,18.159210
423.0528,19.133560
424.9165,17.761560
426.7802,18.570438
428.6439,18.363979
430.5075,18.830983
432.3712,17.951067
434.2349,18.087327
436.0985,17.558017
437.9622,18.133741
439.8259,18.132771
441.6895,18.654181
443.5532,18.142644
445.4169,18.514279
447.2805,18.202794
449.1442,18.490466
451.0079,18.370681
452.8715,18.531432
454.7352,18.021323
456.5989,18.314019
458.4626,18.194678
460.3262,18.446650
462.1899,18.176969
464.0536,18.317536
465.9172,18.134259
467.7809,18.307538
469.6446,17.957285
471.5082,18.071844
473.3719,17.832885
475.2356,17.914264
477.0992,17.724471
478.9629,18.016563
480.8266,17.825658
482.6902,17.754899
484.5539,17.426120
486.4176,17.683474
488.2813,17.619048
490.1449,17.705678
492.0086,17.399455
493.8723,17.539660
495.7359,17.483361
497.5996,17.570631
499.4633,17.404227
501.3269,17.511656
503.1906,17.318625
505.0543,17.485334
506.9179,17.414889
508.7816,17.566008
510.6453,17.578916
512.5090,17.900587
514.3726,17.989810
516.2363,18.168115
518.1000,18.071278
519.9636,18.251354
521.8273,18.216851
523.6910,18.376105
525.5546,18.323935
527.4183,18.370941
529.2820,18.275251
531.1456,18.422668
533.0093,18.455268
534.8730,18.621582
536.7366,18.570028
538.6003,18.573352
540.4640,18.361649
542.3277,18.476995
544.1913,18.408905
546.0550,18.441349
547.9187,18.379935
549.7823,18.396064
551.6460,18.247188
553.5097,18.267261
555.3733,18.218613
557.2370,18.342347
559.1007,18.408054
560.9643,18.660057
562.8280,18.747819
564.6917,18.874016
566.5554,18.872822
568.4190,19.004321
570.2827,19.029354
572.1464,19.183383
574.0100,19.121765
575.8737,19.062380
577.7374,19.013448
579.6010,19.142784
581.4647,19.111132
583.3284,19.195455
585.1920,19.209126
587.0557,19.247330
588.9194,19.156710
590.7830,19.245918
592.6467,19.224434
594.5104,19.239250
596.3741,19.263013
598.2377,19.341609
600.1014,19.337913
601.9651,19.431073
603.8287,19.422609
605.6924,19.442064
607.5561,19.476012
609.4197,19.601136
611.2834,19.669066
613.1471,19.730229
615.0107,19.691879
616.8744,19.775082
618.7381,19.858950
620.6017,20.019863
622.4654,20.143033
624.3291,20.251303
626.1928,20.248129
628.0564,20.330650
629.9201,20.408038
631.7838,20.535136
633.6474,20.566769
635.5111,20.615161
637.3748,20.664539
639.2384,20.764606
641.1021,20.783087
642.9658,20.805672
644.8294,20.779291
646.6931,20.840933
648.5568,20.866753
650.4205,20.872721
652.2841,20.811838
654.1478,20.767319
656.0115,20.698029
657.8751,20.702399
659.7388,20.705890
661.6025,20.779679
663.4661,20.909187
665.3298,21.189715
667.1935,21.145652
669.0571,20.903015
670.9208,21.208683
672.7845,21.500949
674.6481,21.627381
676.5118,21.756378
678.3755,21.849894
680.2392,21.991935
682.1028,22.067244
683.9665,22.070669
685.8302,22.060839
687.6938,22.108538
689.5575,22.082049
691.4212,22.100794
693.2848,22.114974
695.1485,22.171615
697.0122,22.153960
698.8758,22.140140
700.7395,22.151235
702.6032,22.193058
704.4669,22.229555
706.3305,22.292003
708.1942,22.292421
710.0579,22.289120
711.9215,22.323198
713.7852,22.384123
715.6489,22.375982
717.5125,22.377128
719.3762,22.334004
721.2399,22.301094
723.1035,22.261183
724.9672,22.192021
726.8309,22.094705
728.6945,22.016329
730.5582,21.858105
732.4219,21.685891
734.2856,21.559723
736.1492,21.672173
738.0129,21.974145
739.8766,22.366713
741.7402,22.675127
743.6039,22.882711
745.4676,22.971548
747.3312,23.090121
749.1949,23.177383
751.0586,23.248848
752.9222,23.334053
754.7859,23.467888
756.6496,23.562241
758.5132,23.666968
760.3769,23.760716
762.2406,23.848434
764.1043,23.924408
765.9679,24.008338
767.8316,24.044564
769.6953,24.102530
771.5589,24.141884
773.4226,24.194132
775.2863,24.215424
777.1499,24.216352
779.0136,24.225080
780.8773,24.238985
782.7409,24.208517
784.6046,24.199598
786.4683,24.168726
788.3320,24.172147
790.1956,24.162888
792.0593,24.128931
793.9230,24.036335
795.7866,23.970076
797.6503,23.898157
799.5140,23.835690
801.3776,23.788167
803.2413,23.807339
805.1050,23.836958
806.9686,23.875935
808.8323,23.910618
810.6960,23.983791
812.5596,24.017135
814.4233,24.019855
816.2870,24.001098
818.1507,23.975884
820.0143,23.916669
821.8780,23.875459
823.7417,23.809438
825.6053,23.737449
827.4690,23.666179
829.3327,23.585628
831.1963,23.440681
833.0600,23.293158
834.9237,23.197627
836.7873,23.202997
838.6510,23.291321
840.5147,23.510612
842.3784,23.839015
844.2420,24.207720
846.1057,24.513615
847.9694,24.751674
849.8330,24.891552
851.6967,24.970881
853.5604,25.003934
855.4240,25.008421
857.2877,24.965039
859.1514,24.937375
861.0150,24.919639
862.8787,24.884990
864.7424,24.818873
866.6060,24.747602
868.4697,24.653967
870.3334,24.580451
872.1971,24.510812
874.0607,24.463177
875.9244,24.391464
877.7881,24.333022
879.6517,24.234947
881.5154,24.115838
883.3791,23.991903
885.2427,23.853455
887.1064,23.660638
888.9701,23.466696
890.8337,23.298277
892.6974,23.166995
894.5611,23.016239
896.4247,22.928107
898.2884,22.906655
900.1521,22.937716
902.0158,22.977642
903.8794,23.032253
905.7431,23.053150
907.6068,23.089796
909.4704,23.074299
911.3341,22.969573
913.1978,22.833775
915.0614,22.697633
916.9251,22.507619
918.7888,22.298819
920.6524,22.054879
922.5161,21.790811
924.3798,21.487229
926.2435,21.172879
928.1071,20.866237
929.9708,20.600537
931.8345,20.333139
933.6981,20.144072
935.5618,20.029374
937.4255,20.024246
939.2891,20.092476
941.1528,20.216998
943.0165,20.368916
944.8801,20.499896
946.7438,20.592359
948.6075,20.648253
950.4711,20.636524
952.3348,20.583319
954.1985,20.455328
956.0622,20.282667
957.9258,20.104662
959.7895,19.985125
961.6532,19.954521
963.5168,20.048974
965.3805,20.196371
967.2442,20.341750
969.1078,20.407094
970.9715,20.401083
972.8352,20.285312
974.6988,20.088787
976.5625,19.830646
978.4262,19.553531
980.2899,19.262264
982.1535,19.018040
984.0172,18.828812
985.8809,18.680561
987.7445,18.567406
989.6082,18.479293
991.4719,18.361493
993.3355,18.248388
995.1992,18.127558
997.0629,18.012851
998.9265,17.894190
1000.7902,17.816154
1002.6539,17.747432
1004.5175,17.678422
1006.3812,17.592052
1008.2449,17.435149
1010.1086,17.200683
1011.9722,16.987182
1013.8359,16.790264
1015.6996,16.616896
1017.5632,16.501543
1019.4269,16.505720
1021.2906,16.613298
1023.1542,16.769329
1025.0179,16.892987
1026.8816,17.009510
1028.7452,17.107689
1030.6089,17.209929
1032.4726,17.327021
1034.3362,17.496473
1036.1999,17.665677
1038.0636,17.815573
1039.9273,17.885494
1041.7909,17.866818
1043.6546,17.772268
1045.5183,17.604521
1047.3819,17.375058
1049.2456,17.158287
1051.1093,16.915462
1052.9729,16.655563
1054.8366,16.439640
1056.7003,16.359058
1058.5639,16.461892
1060.4276,16.819822
1062.2913,17.362850
1064.1550,18.024800
1066.0186,18.708313
1067.8823,19.374771
1069.7460,19.982954
1071.6096,20.528426
1073.4733,20.956301
1075.3370,21.272601
1077.2006,21.464395
1079.0643,21.571891
1080.9280,21.572121
1082.7916,21.461877
1084.6553,21.281295
1086.5190,21.124720
1088.3826,20.975996
1090.2463,20.814948
1092.1100,20.647637
1093.9737,20.459713
1095.8373,20.205027
1097.7010,19.947854
1099.5647,19.690432
1101.4283,19.449205
1103.2920,19.235219
1105.1557,19.070930
1107.0193,18.961676
1108.8830,18.879977
1110.7467,18.816178
1112.6103,18.880399
1114.4740,19.088571
1116.3377,19.442354
1118.2014,19.890975
1120.0650,20.337758
1121.9287,20.686731
1123.7924,20.936602
1125.6560,21.044952
1127.5197,21.012939
1129.3834,20.834006
1131.2470,20.493962
1133.1107,19.979107
1134.9744,19.345583
1136.8380,18.612330
1138.7017,17.773538
1140.5654,16.828106
1142.4290,15.874767
1144.2927,15.033876
1146.1564,14.406397
1148.0201,13.986380
1149.8837,13.700708
1151.7474,13.477686
1153.6111,13.367189
1155.4747,13.426474
1157.3384,13.744061
1159.2021,14.308997
1161.0657,15.116718
1162.9294,16.118209
1164.7931,17.267192
1166.6567,18.493631
1168.5204,19.742176
1170.3841,20.985281
1172.2477,22.281687
1174.1114,23.601253
1175.9751,24.924757
1177.8388,26.223888
1179.7024,27.436199
1181.5661,28.473703
1183.4298,29.361182
1185.2934,30.075374
1187.1571,30.618032
1189.0208,30.983725
1190.8844,31.178417
1192.7481,31.222362
1194.6118,31.159097
1196.4754,30.996628
1198.3391,30.777194
1200.2028,30.518860
1202.0665,30.254326
1203.9301,30.001838
1205.7938,29.764366
1207.6575,29.559162
1209.5211,29.376311
1211.3848,29.159556
1213.2485,28.900745
1215.1121,28.597148
1216.9758,28.273349
1218.8395,27.927760
1220.7031,27.582794
1222.5668,27.238996
1224.4305,26.923848
1226.2941,26.639259
1228.1578,26.419133
1230.0215,26.231528
1231.8852,26.106058
1233.7488,26.067277
1235.6125,26.125423
1237.4762,26.261801
1239.3398,26.471998
1241.2035,26.776905
1243.0672,27.174895
1244.9308,27.609743
1246.7945,28.063749
1248.6582,28.471760
1250.5218,28.852434
1252.3855,29.233947
1254.2492,29.613049
1256.1129,29.982813
1257.9765,30.404189
1259.8402,30.876074
1261.7039,31.400022
1263.5675,31.941003
1265.4312,32.464090
1267.2949,32.987329
1269.1585,33.586026
1271.0222,34.289542
1272.8859,35.157211
1274.7495,36.108758
1276.6132,36.999621
1278.4769,37.750504
1280.3405,38.331143
1282.2042,38.725656
1284.0679,38.979655
1285.9316,39.080916
1287.7952,39.029895
1289.6589,38.893652
1291.5226,38.712421
1293.3862,38.463677
1295.2499,38.178866
1297.1136,37.873759
1298.9772,37.594802
1300.8409,37.386250
1302.7046,37.226817
1304.5682,37.096596
1306.4319,37.023168
1308.2956,36.990954
1310.1592,37.015233
1312.0229,37.038068
1313.8866,37.045886
1315.7503,37.072381
1317.6139,37.054448
1319.4776,36.953447
1321.3413,36.857950
1323.2049,36.780037
1325.0686,36.694586
1326.9323,36.628233
1328.7959,36.582472
1330.6596,36.516600
1332.5233,36.484963
1334.3869,36.518123
1336.2506,36.547389
1338.1143,36.505497
1339.9780,36.454454
1341.8416,36.603255
1343.7053,36.853170
1345.5690,36.971226
1347.4326,36.959509
1349.2963,36.824870
1351.1600,36.674108
1353.0236,36.501467
1354.8873,36.284404
1356.7510,36.136523
1358.6146,36.073322
1360.4783,35.899659
1362.3420,35.532778
1364.2056,35.295548
1366.0693,35.316719
1367.9330,35.206735
1369.7967,35.121763
1371.6603,35.211843
1373.5240,35.183195
1375.3877,35.181490
1377.2513,35.505458
1379.1150,35.921400
1380.9787,36.444275
1382.8423,37.019984
1384.7060,37.413962
1386.5697,37.310155
1388.4333,36.996435
1390.2970,37.060200
1392.1607,37.189570
1394.0244,37.105042
1395.8880,37.183983
1397.7517,37.588319
1399.6154,38.008615
1401.4790,38.697141
1403.3427,39.360065
1405.2064,39.664138
1407.0700,40.019783
1408.9337,40.294536
1410.7974,40.298600
1412.6610,40.216901
1414.5247,40.198248
1416.3884,40.031606
1418.2520,39.197668
1420.1157,38.190137
1421.9794,38.061482
1423.8431,37.633501
1425.7067,36.977869
1427.5704,36.526298
1429.4341,35.774447
1431.2977,35.182341
1433.1614,35.140470
1435.0251,34.956454
1436.8887,34.108919
1438.7524,33.812139
1440.6161,33.914810
1442.4797,33.617984
1444.3434,33.377726
1446.2071,33.219508
1448.0707,33.166851
1449.9344,33.526297
1451.7981,34.268096
1453.6618,35.050604
1455.5254,35.408778
1457.3891,35.013120
1459.2528,35.590715
1461.1164,36.664269
1462.9801,37.331414
1464.8438,37.643989
1466.7074,38.543045
1468.5711,40.077911
1470.4348,41.428292
1472.2984,42.109179
1474.1621,42.701452
1476.0258,43.495439
1477.8895,44.261471
1479.7531,44.927417
1481.6168,45.252347
1483.4805,45.526591
1485.3441,45.747838
1487.2078,45.559955
1489.0715,44.973790
1490.9351,44.581293
1492.7988,44.962595
1494.6625,45.172135
1496.5261,44.520052
1498.3898,44.070131
1500.2535,44.256253
1502.1171,44.822080
1503.9808,45.283710
1505.8445,44.286124
1507.7082,42.673908
1509.5718,43.106238
1511.4355,43.574551
1513.2992,43.756100
1515.1628,43.846005
1517.0265,43.588257
1518.8902,43.605463
1520.7538,43.215795
1522.6175,42.591978
1524.4812,42.840935
1526.3448,42.738195
1528.2085,42.697897
1530.0722,43.039033
1531.9359,43.015411
1533.7995,42.497408
1535.6632,42.962440
1537.5269,43.644535
1539.3905,42.614885
1541.2542,41.442400
1543.1179,41.599263
1544.9815,41.710491
1546.8452,41.991367
1548.7089,42.222892
1550.5725,42.146572
1552.4362,42.404520
1554.2999,42.697196
1556.1635,42.899088
1558.0272,41.805403
1559.8909,39.883584
1561.7546,40.864871
1563.6182,41.740092
1565.4819,41.817090
1567.3456,41.834828
1569.2092,41.373338
1571.0729,41.148152
1572.9366,41.777431
1574.8002,41.633423
1576.6639,40.614885
1578.5276,40.658430
1580.3912,41.060477
1582.2549,40.991049
1584.1186,40.906835
1585.9822,40.852936
1587.8459,40.826528
1589.7096,40.780238
1591.5733,40.737292
1593.4369,40.634680
1595.3006,40.506950
1597.1643,40.459698
1599.0279,40.464257
1600.8916,40.362096
1602.7553,40.252891
1604.6189,40.221378
1606.4826,40.183507
1608.3463,40.024029
1610.2099,39.954278
1612.0736,40.125200
1613.9373,40.310846
1615.8010,39.758264
1617.6646,38.990821
1619.5283,39.418591
1621.3920,39.693917
1623.2556,39.170173
1625.1193,38.924162
1626.9830,38.953825
1628.8466,38.813675
1630.7103,39.068063
1632.5740,39.453423
1634.4376,38.900991
1636.3013,37.628256
1638.1650,37.710543
1640.0286,38.208262
1641.8923,38.448653
1643.7560,38.617410
1645.6197,38.125249
1647.4833,37.439011
1649.3470,38.087948
1651.2107,38.519711
1653.0743,36.451961
1654.9380,35.648415
1656.8017,36.762554
1658.6653,37.177013
1660.5290,37.060215
1662.3927,36.554350
1664.2563,36.282471
1666.1200,36.596780
1667.9837,36.387184
1669.8474,35.531726
1671.7110,35.374148
1673.5747,35.355087
1675.4384,34.563043
1677.3020,34.329520
1679.1657,34.603659
1681.0294,34.471844
1682.8930,33.686125
1684.7567,31.915554
1686.6204,31.610579
1688.4840,31.825366
1690.3477,31.440293
1692.2114,31.338952
1694.0750,31.096652
1695.9387,29.976636
1697.8024,29.297624
1699.6661,28.503953
1701.5297,27.098693
1703.3934,27.067886
1705.2571,26.626435
1707.1207,25.870572
1708.9844,25.447560
1710.8481,24.893372
1712.7117,24.115723
1714.5754,22.956796
1716.4391,21.225955
1718.3027,19.256849
1720.1664,17.892749
1722.0301,17.049774
1723.8937,16.234631
1725.7574,15.940911
1727.6211,16.253412
1729.4848,17.175183
1731.3484,18.658116
1733.2121,20.933445
1735.0758,24.219118
1736.9394,27.396943
1738.8031,31.259666
1740.6668,36.130978
1742.5304,40.608856
1744.3941,44.871049
1746.2578,48.725878
1748.1214,51.903274
1749.9851,54.341318
1751.8488,55.994289
1753.7125,57.132298
1755.5761,57.620112
1757.4398,57.630678
1759.3035,57.517686
1761.1671,57.098549
1763.0308,56.535386
1764.8945,56.445761
1766.7581,56.251031
1768.6218,55.805319
1770.4855,55.321154
1772.3491,54.583996
1774.2128,54.195400
1776.0765,54.248028
1777.9401,54.100337
1779.8038,53.799389
1781.6675,53.501118
1783.5312,53.363072
1785.3948,53.147291
1787.2585,53.143552
1789.1222,53.179117
1790.9858,52.793874
1792.8495,52.218207
1794.7132,52.230392
1796.5768,52.403397
1798.4405,52.290981
1800.3042,51.968923
1802.1678,51.731065
1804.0315,51.748669
1805.8952,51.819585
1807.7589,51.737571
1809.6225,51.597243
1811.4862,51.482919
1813.3499,51.497567
1815.2135,51.505827
1817.0772,51.401405
1818.9409,51.318929
1820.8045,51.359563
1822.6682,51.394444
1824.5319,51.218824
1826.3955,51.063811
1828.2592,51.077769
1830.1229,50.773691
1831.9865,50.664324
1833.8502,50.824394
1835.7139,50.834095
1837.5776,50.847112
1839.4412,50.977663
1841.3049,51.102001
1843.1686,50.848042
1845.0322,50.401792
1846.8959,50.450118
1848.7596,50.565699
1850.6232,50.592039
1852.4869,50.615393
1854.3506,50.589608
1856.2142,50.558758
1858.0779,50.521093
1859.9416,50.500579
1861.8052,50.542905
1863.6689,50.629403
1865.5326,50.696365
1867.3963,50.557088
1869.2599,50.271030
1871.1236,50.279335
1872.9873,50.423460
1874.8509,50.460120
1876.7146,50.496503
1878.5783,50.505265
1880.4419,50.516801
1882.3056,50.578789
1884.1693,50.608691
1886.0329,50.564588
1887.8966,50.542637
1889.7603,50.516125
1891.6240,50.593258
1893.4876,50.697226
1895.3513,50.671135
1897.2150,50.693353
1899.0786,50.721603
1900.9423,50.686291
1902.8060,50.710105
1904.6696,50.752805
1906.5333,50.774919
1908.3970,50.760658
1910.2606,50.849885
1912.1243,50.974214
1913.9880,51.088773
1915.8516,51.235183
1917.7153,51.223591
1919.5790,51.238922
1921.4427,51.419449
1923.3063,51.524889
1925.1700,51.684325
1927.0337,51.824331
1928.8973,51.887595
1930.7610,52.046638
1932.6247,52.172708
1934.4883,52.124008
1936.3520,52.216744
1938.2157,52.441520
1940.0793,52.734823
1941.9430,52.971926
1943.8067,53.019922
1945.6704,53.143952
1947.5340,53.528321
1949.3977,53.808468
1951.2614,53.962069
1953.1250,54.138779
1954.9887,54.500658
1956.8524,54.976163
1958.7160,55.218277
1960.5797,55.463871
1962.4434,56.038752
1964.3070,56.672850
1966.1707,56.928603
1968.0344,56.859318
1969.8980,57.020184
1971.7617,57.202567
1973.6254,57.797964
1975.4891,58.347542
1977.3527,57.895575
1979.2164,56.837290
1981.0801,56.359410
1982.9437,56.380382
1984.8074,56.232911
1986.6711,55.911539
1988.5347,55.834445
1990.3984,55.883580
1992.2621,55.893192
1994.1257,55.819497
1995.9894,55.618966
1997.8531,55.584015
1999.7167,55.872147
2001.5804,56.192859
2003.4441,56.705974
2005.3078,57.331496
2007.1714,57.651989
2009.0351,57.702844
2010.8988,57.787613
2012.7624,57.778563
2014.6261,57.861044
2016.4898,58.014791
2018.3534,58.286547
2020.2171,58.513971
2022.0808,58.613069
2023.9444,58.722752
2025.8081,58.758201
2027.6718,58.650696
2029.5355,58.937404
2031.3991,58.911635
2033.2628,58.226756
2035.1265,57.622953
2036.9901,57.292352
2038.8538,56.867943
2040.7175,56.520975
2042.5811,56.274243
2044.4448,55.965534
2046.3085,55.675344
2048.1721,55.099612
2050.0358,54.174311
2051.8995,53.712638
2053.7631,53.560594
2055.6268,53.354882
2057.4905,53.121911
2059.3542,53.004066
2061.2178,52.943983
2063.0815,52.867347
2064.9452,52.774059
2066.8088,52.684272
2068.6725,52.481097
2070.5362,52.206872
2072.3998,51.980416
2074.2635,51.783587
2076.1272,51.766387
2077.9908,51.757626
2079.8545,51.557450
2081.7182,51.329987
2083.5819,51.123487
2085.4455,51.127625
2087.3092,51.250495
2089.1729,51.318149
2091.0365,51.415151
2092.9002,51.421194
2094.7639,51.318939
2096.6275,51.288314
2098.4912,51.230516
2100.3549,51.188686
2102.2185,51.208325
2104.0822,51.194466
2105.9459,51.166233
2107.8095,51.080420
2109.6732,51.017922
2111.5369,51.069737
2113.4006,51.043032
2115.2642,51.016058
2117.1279,51.110581
2118.9916,51.201722
2120.8552,51.395293
2122.7189,51.598923
2124.5826,51.714920
2126.4462,51.900963
2128.3099,52.185934
2130.1736,52.718712
2132.0372,53.312367
2133.9009,53.596934
2135.7646,53.884572
2137.6282,54.392369
2139.4919,54.640467
2141.3556,54.905976
2143.2193,55.322295
2145.0829,55.664662
2146.9466,56.048178
2148.8103,56.442668
2150.6739,57.047476
2152.5376,58.086579
2154.4013,59.295057
2156.2649,59.997588
2158.1286,59.862762
2159.9923,59.831566
2161.8559,59.510922
2163.7196,58.698333
2165.5833,58.041134
2167.4470,57.655017
2169.3106,57.378392
2171.1743,57.000125
2173.0380,56.726609
2174.9016,56.762847
2176.7653,56.757600
2178.6290,56.637885
2180.4926,56.437437
2182.3563,56.260329
2184.2200,56.054660
2186.0836,55.735490
2187.9473,55.513911
2189.8110,55.423106
2191.6746,55.249342
2193.5383,54.759625
2195.4020,54.489496
2197.2657,54.645815
2199.1293,54.610493
2200.9930,54.302630
2202.8567,54.169005
2204.7203,54.195037
2206.5840,54.094368
2208.4477,53.859996
2210.3113,53.483376
2212.1750,53.421976
2214.0387,53.586220
2215.9023,53.489313
2217.7660,53.327360
2219.6297,53.285393
2221.4934,53.126172
2223.3570,52.942138
2225.2207,52.930096
2227.0844,52.780437
2228.9480,52.530054
2230.8117,52.444026
2232.6754,52.340665
2234.5390,52.148913
2236.4027,52.038419
2238.2664,51.979274
2240.1300,51.968189
2241.9937,51.905618
2243.8574,51.666722
2245.7210,51.457947
2247.5847,51.381199
2249.4484,51.261812
2251.3121,51.166004
2253.1757,51.177198
2255.0394,51.091057
2256.9031,51.050331
2258.7667,51.032509
2260.6304,50.849991
2262.4941,50.754413
2264.3577,50.784095
2266.2214,50.622085
2268.0851,50.335332
2269.9487,50.127664
2271.8124,49.985349
2273.6761,49.833325
2275.5397,49.718319
2277.4034,49.696251
2279.2671,49.536297
2281.1308,49.299408
2282.9944,49.223385
2284.8581,49.134186
2286.7218,48.963837
2288.5854,48.856468
2290.4491,48.793422
2292.3128,48.746866
2294.1764,48.688493
2296.0401,48.631759
2297.9038,48.644040
2299.7674,48.639421
2301.6311,48.539976
2303.4948,48.485475
2305.3585,48.488405
2307.2221,48.448118
2309.0858,48.410972
2310.9495,48.360325
2312.8131,48.260383
2314.6768,48.189012
2316.5405,48.150338
2318.4041,48.018803
2320.2678,47.836706
2322.1315,47.744264
2323.9951,47.816717
2325.8588,48.049892
2327.7225,48.217005
2329.5861,48.175128
2331.4498,48.077582
2333.3135,48.076450
2335.1772,48.129365
2337.0408,48.136060
2338.9045,48.064290
2340.7682,47.979959
2342.6318,47.873055
2344.4955,47.770809
2346.3592,47.906423
2348.2228,48.318682
2350.0865,48.711846
2351.9502,48.827631
2353.8138,48.709957
2355.6775,48.587840
2357.5412,48.550744
2359.4049,48.503756
2361.2685,48.508048
2363.1322,48.545853
2364.9959,48.410713
2366.8595,48.271997
2368.7232,48.237326
2370.5869,48.168132
2372.4505,48.120125
2374.3142,48.142519
2376.1779,48.160015
2378.0415,48.216466
2379.9052,48.336416
2381.7689,48.431033
2383.6325,48.490156
2385.4962,48.559355
2387.3599,48.632512
2389.2236,48.654941
2391.0872,48.649060
2392.9509,48.694412
2394.8146,48.730874
2396.6782,48.721516
2398.5419,48.728678
2400.4056,48.800067
2402.2692,48.860333
2404.1329,48.852532
2405.9966,48.869944
2407.8602,48.891775
2409.7239,48.877502
2411.5876,48.903159
2413.4512,48.914883
2415.3149,48.903333
2417.1786,48.948068
2419.0423,48.993621
2420.9059,49.041478
2422.7696,49.083888
2424.6333,49.054628
2426.4969,49.017392
2428.3606,49.017310
2430.2243,49.076929
2432.0879,49.102926
2433.9516,49.050875
2435.8153,49.064911
2437.6789,49.096173
2439.5426,49.108119
2441.4063,49.137637
2443.2700,49.114848
2445.1336,49.038393
2446.9973,49.024374
2448.8610,49.044094
2450.7246,49.034594
2452.5883,49.046439
2454.4520,49.072539
2456.3156,49.098975
2458.1793,49.126008
2460.0430,49.135015
2461.9066,49.146627
2463.7703,49.126946
2465.6340,49.116110
2467.4976,49.221403
2469.3613,49.301703
2471.2250,49.190785
2473.0887,49.088048
2474.9523,49.137590
2476.8160,49.194517
2478.6797,49.211370
2480.5433,49.162499
2482.4070,49.046308
2484.2707,49.072333
2486.1343,49.188960
2487.9980,49.205935
2489.8617,49.207335
2491.7253,49.207605
2493.5890,49.213950
2495.4527,49.241569
2497.3164,49.267443
2499.1800,49.305962
2501.0437,49.257094
2502.9074,49.227936
2504.7710,49.292014
2506.6347,49.292764
2508.4984,49.217187
2510.3620,49.207842
2512.2257,49.206459
2514.0894,49.205581
2515.9530,49.271693
2517.8167,49.253755
2519.6804,49.170566
2521.5440,49.168667
2523.4077,49.259529
2525.2714,49.318818
2527.1351,49.248924
2528.9987,49.165645
2530.8624,49.130413
2532.7261,49.128736
2534.5897,49.183804
2536.4534,49.233835
2538.3171,49.186836
2540.1807,49.090283
2542.0444,49.103666
2543.9081,49.159028
2545.7717,49.110035
2547.6354,49.036453
2549.4991,49.034134
2551.3627,49.072286
2553.2264,49.049254
2555.0901,49.008687
2556.9538,48.981803
2558.8174,48.970696
2560.6811,48.987076
2562.5448,49.014192
2564.4084,48.967134
2566.2721,48.887903
2568.1358,48.864056
2569.9994,48.888265
2571.8631,48.868814
2573.7268,48.801580
2575.5904,48.768042
2577.4541,48.753294
2579.3178,48.747959
2581.1815,48.759582
2583.0451,48.710629
2584.9088,48.619756
2586.7725,48.567785
2588.6361,48.594814
2590.4998,48.540727
2592.3635,48.459571
2594.2271,48.477970
2596.0908,48.515847
2597.9545,48.488585
2599.8181,48.414618
2601.6818,48.364851
2603.5455,48.347837
2605.4091,48.314741
2607.2728,48.236203
2609.1365,48.187398
2611.0002,48.200246
2612.8638,48.138004
2614.7275,48.095202
2616.5912,48.116897
2618.4548,48.076055
2620.3185,48.001253
2622.1822,47.966843
2624.0458,47.919752
2625.9095,47.881568
2627.7732,47.870862
2629.6368,47.826426
2631.5005,47.767002
2633.3642,47.754112
2635.2279,47.713973
2637.0915,47.684100
2638.9552,47.657302
2640.8189,47.588347
2642.6825,47.511983
2644.5462,47.473833
2646.4099,47.447476
2648.2735,47.440535
2650.1372,47.430450
2652.0009,47.400774
2653.8645,47.379381
2655.7282,47.380941
2657.5919,47.360129
2659.4555,47.368605
2661.3192,47.354065
2663.1829,47.347178
2665.0466,47.405377
2666.9102,47.471925
2668.7739,47.500169
2670.6376,47.479499
2672.5012,47.441531
2674.3649,47.419019
2676.2286,47.438377
2678.0922,47.453941
2679.9559,47.397746
2681.8196,47.346973
2683.6832,47.382269
2685.5469,47.449807
2687.4106,47.424788
2689.2742,47.350829
2691.1379,47.316749
2693.0016,47.348741
2694.8653,47.344415
2696.7289,47.321401
2698.5926,47.342835
2700.4563,47.365525
2702.3199,47.387206
2704.1836,47.392525
2706.0473,47.336005
2707.9109,47.279112
2709.7746,47.284831
2711.6383,47.307035
2713.5019,47.269054
2715.3656,47.214044
2717.2293,47.203291
2719.0930,47.223507
2720.9566,47.191569
2722.8203,47.186740
2724.6840,47.197830
2726.5476,47.179226
2728.4113,47.132116
2730.2750,47.115603
2732.1386,47.117020
2734.0023,47.101834
2735.8660,47.093781
2737.7296,47.134760
2739.5933,47.175053
2741.4570,47.159649
2743.3206,47.109459
2745.1843,47.132365
2747.0480,47.176773
2748.9117,47.155463
2750.7753,47.131545
2752.6390,47.133634
2754.5027,47.105002
2756.3663,47.091670
2758.2300,47.066882
2760.0937,47.074871
2761.9573,47.062564
2763.8210,47.021180
2765.6847,46.943774
2767.5483,46.917073
2769.4120,46.908385
2771.2757,46.841830
2773.1394,46.798165
2775.0030,46.798760
2776.8667,46.774709
2778.7304,46.792817
2780.5940,46.732305
2782.4577,46.656200
2784.3214,46.660224
2786.1850,46.666454
2788.0487,46.585387
2789.9124,46.504138
2791.7760,46.447506
2793.6397,46.417391
2795.5034,46.392851
2797.3670,46.349080
2799.2307,46.241541
2801.0944,46.147794
2802.9581,46.066756
2804.8217,46.026312
2806.6854,46.008955
2808.5491,45.942931
2810.4127,45.826223
2812.2764,45.706295
2814.1401,45.617607
2816.0037,45.537536
2817.8674,45.412146
2819.7311,45.334197
2821.5947,45.234032
2823.4584,45.114291
2825.3221,44.958649
2827.1857,44.790922
2829.0494,44.628296
2830.9131,44.495383
2832.7768,44.329540
2834.6404,44.158537
2836.5041,43.957194
2838.3678,43.652693
2840.2314,43.294372
2842.0951,43.019685
2843.9588,42.802289
2845.8224,42.550772
2847.6861,42.262121
2849.5498,42.077538
2851.4134,41.927607
2853.2771,41.699920
2855.1408,41.340189
2857.0045,40.991389
2858.8681,40.653634
2860.7318,40.308318
2862.5955,39.982537
2864.4591,39.683556
2866.3228,39.478275
2868.1865,39.421617
2870.0501,39.343914
2871.9138,39.413459
2873.7775,39.737518
2875.6411,40.343435
2877.5048,41.087543
2879.3685,41.787497
2881.2321,42.249246
2883.0958,42.464823
2884.9595,42.480283
2886.8232,42.368641
2888.6868,42.125521
2890.5505,41.912873
2892.4142,41.634723
2894.2778,41.366851
2896.1415,41.206337
2898.0052,41.109462
2899.8688,40.962868
2901.7325,40.840224
2903.5962,40.682471
2905.4598,40.532322
2907.3235,40.327996
2909.1872,40.143824
2911.0509,39.984761
2912.9145,39.872644
2914.7782,39.644775
2916.6419,39.413169
2918.5055,39.222703
2920.3692,38.985889
2922.2329,38.750846
2924.0965,38.650759
2925.9602,38.495478
2927.8239,38.354305
2929.6875,38.341840
2931.5512,38.523254
2933.4149,38.774630
2935.2785,39.181458
2937.1422,39.608608
2939.0059,39.993132
2940.8696,40.266338
2942.7332,40.437622
2944.5969,40.416392
2946.4606,40.216280
2948.3242,39.875086
2950.1879,39.445115
2952.0516,38.920678
2953.9152,38.604384
2955.7789,38.600050
2957.6426,39.022258
2959.5062,39.782922
2961.3699,40.825993
2963.2336,42.086469
2965.0972,43.586793
2966.9609,45.077258
2968.8246,46.518982
2970.6883,47.840633
2972.5519,49.007113
2974.4156,49.969977
2976.2793,50.728956
2978.1429,51.311215
2980.0066,51.844162
2981.8703,52.268620
2983.7339,52.567595
2985.5976,52.823484
2987.4613,53.072452
2989.3249,53.213506
2991.1886,53.340553
2993.0523,53.408948
2994.9160,53.430099
2996.7796,53.404235
2998.6433,53.431072
3000.5070,53.451546
3002.3706,53.471463
3004.2343,53.435366
3006.0980,53.394838
3007.9616,53.321042
3009.8253,53.238131
3011.6890,53.170100
3013.5526,53.077440
3015.4163,52.982442
3017.2800,52.963883
3019.1436,52.880298
3021.0073,52.836921
3022.8710,52.791876
3024.7347,52.728616
3026.5983,52.656591
3028.4620,52.637710
3030.3257,52.571969
3032.1893,52.555699
3034.0530,52.544548
3035.9167,52.466093
3037.7803,52.365639
3039.6440,52.360236
3041.5077,52.283842
3043.3713,52.206450
3045.2350,52.188017
3047.0987,52.181038
3048.9624,52.112639
3050.8260,52.097619
3052.6897,52.069692
3054.5534,52.089642
3056.4170,52.049309
3058.2807,51.971169
3060.1444,51.876255
3062.0080,51.833245
3063.8717,51.804936
3065.7354,51.871367
3067.5990,51.810575
3069.4627,51.667007
3071.3264,51.681000
3073.1900,51.753114
3075.0537,51.663503
3076.9174,51.606707
3078.7811,51.562058
3080.6447,51.548613
3082.5084,51.570640
3084.3721,51.578581
3086.2357,51.469934
3088.0994,51.449172
3089.9631,51.441084
3091.8267,51.454216
3093.6904,51.408673
3095.5541,51.350129
3097.4177,51.317495
3099.2814,51.351167
3101.1451,51.254112
3103.0087,51.188294
3104.8724,51.123864
3106.7361,51.117328
3108.5998,51.114274
3110.4634,51.137476
3112.3271,51.109249
3114.1908,51.059750
3116.0544,51.051107
3117.9181,51.120313
3119.7818,51.018140
3121.6454,50.917036
3123.5091,50.856848
3125.3728,50.867098
3127.2364,50.865807
3129.1001,50.863442
3130.9638,50.785715
3132.8275,50.818034
3134.6911,50.762316
3136.5548,50.704227
3138.4185,50.707867
3140.2821,50.740590
3142.1458,50.587218
3144.0095,50.550493
3145.8731,50.554233
3147.7368,50.501864
3149.6005,50.431336
3151.4641,50.481785
3153.3278,50.437411
3155.1915,50.378738
3157.0551,50.307651
3158.9188,50.274409
3160.7825,50.201763
3162.6462,50.220206
3164.5098,50.256411
3166.3735,50.341235
3168.2372,50.253105
3170.1008,50.181276
3171.9645,50.155704
3173.8282,50.103095
3175.6918,50.008194
3177.5555,49.939935
3179.4192,49.852044
3181.2828,49.969607
3183.1465,49.929606
3185.0102,49.881043
3186.8739,49.847977
3188.7375,49.876164
3190.6012,49.769396
3192.4649,49.735359
3194.3285,49.752467
3196.1922,49.728905
3198.0559,49.626719
3199.9195,49.624604
3201.7832,49.618396
3203.6469,49.633575
3205.5105,49.479369
3207.3742,49.344662
3209.2379,49.309985
3211.1015,49.325339
3212.9652,49.330010
3214.8289,49.457461
3216.6926,49.347191
3218.5562,49.278540
3220.4199,49.377981
3222.2836,49.409248
3224.1472,49.219480
3226.0109,49.151816
3227.8746,49.119555
3229.7382,49.191211
3231.6019,49.107372
3233.4656,49.090355
3235.3292,49.065816
3237.1929,49.022348
3239.0566,48.940608
3240.9202,48.958872
3242.7839,48.968399
3244.6476,49.019574
3246.5113,49.004626
3248.3749,48.921563
3250.2386,48.762450
3252.1023,48.796905
3253.9659,48.769494
3255.8296,48.698391
3257.6933,48.659342
3259.5569,48.719531
3261.4206,48.680928
3263.2843,48.672320
3265.1479,48.571548
3267.0116,48.566110
3268.8753,48.577273
3270.7390,48.682056
3272.6026,48.637864
3274.4663,48.535939
3276.3300,48.461838
3278.1936,48.511966
3280.0573,48.484382
3281.9210,48.485245
3283.7846,48.410112
3285.6483,48.447871
3287.5120,48.519886
3289.3756,48.612807
3291.2393,48.604007
3293.1030,48.649925
3294.9666,48.601886
3296.8303,48.612088
3298.6940,48.648686
3300.5577,48.717996
3302.4213,48.671238
3304.2850,48.732559
3306.1487,48.745478
3308.0123,48.764908
3309.8760,48.716781
3311.7397,48.744285
3313.6033,48.694445
3315.4670,48.738580
3317.3307,48.745829
3319.1943,48.836343
3321.0580,48.845036
3322.9217,48.792131
3324.7854,48.794178
3326.6490,48.935920
3328.5127,48.884339
3330.3764,48.862623
3332.2400,48.893639
3334.1037,48.937754
3335.9674,48.903236
3337.8310,48.986606
3339.6947,49.006052
3341.5584,49.026913
3343.4220,49.018895
3345.2857,49.185835
3347.1494,49.248394
3349.0130,49.300733
3350.8767,49.247218
3352.7404,49.262530
3354.6041,49.304287
3356.4677,49.464840
3358.3314,49.503072
3360.1951,49.546676
3362.0587,49.478203
3363.9224,49.531196
3365.7861,49.663698
3367.6497,49.810042
3369.5134,49.816772
3371.3771,49.874854
3373.2407,49.835865
3375.1044,49.895197
3376.9681,49.916239
3378.8317,49.987200
3380.6954,50.038427
3382.5591,50.139145
3384.4228,50.050800
3386.2864,50.146085
3388.1501,50.267361
3390.0138,50.304411
3391.8774,50.233968
3393.7411,50.217983
3395.6048,50.201635
3397.4684,50.367898
3399.3321,50.492202
3401.1958,50.460090
3403.0594,50.248194
3404.9231,50.288248
3406.7868,50.333201
3408.6505,50.527382
3410.5141,50.592923
3412.3778,50.532226
3414.2415,50.466410
3416.1051,50.541161
3417.9688,50.559296
3419.8325,50.580171
3421.6961,50.584752
3423.5598,50.646766
3425.4235,50.718599
3427.2871,50.855612
3429.1508,50.878504
3431.0145,50.809419
3432.8781,50.778592
3434.7418,50.942999
3436.6055,50.924323
3438.4692,50.937267
3440.3328,50.870051
3442.1965,50.834446
3444.0602,50.924363
3445.9238,51.126630
3447.7875,51.057926
3449.6512,51.141468
3451.5148,51.255690
3453.3785,51.417240
3455.2422,51.487002
3457.1058,51.555703
3458.9695,51.433990
3460.8332,51.484927
3462.6969,51.561495
3464.5605,51.756510
3466.4242,51.942055
3468.2879,52.051983
3470.1515,51.945029
3472.0152,52.001577
3473.8789,52.034326
3475.7425,52.045859
3477.6062,52.022163
3479.4699,52.190704
3481.3335,52.144870
3483.1972,52.266111
3485.0609,52.378779
3486.9245,52.446903
3488.7882,52.512474
3490.6519,52.585700
3492.5156,52.590214
3494.3792,52.686495
3496.2429,52.638756
3498.1066,52.743389
3499.9702,52.784693
3501.8339,52.902348
3503.6976,52.825419
3505.5612,52.811584
3507.4249,52.817696
3509.2886,52.795608
3511.1522,52.947559
3513.0159,53.265980
3514.8796,53.212337
3516.7432,53.188437
3518.6069,53.189875
3520.4706,53.326085
3522.3343,53.255390
3524.1979,53.271246
3526.0616,53.263108
3527.9253,53.218413
3529.7889,53.076924
3531.6526,53.213773
3533.5163,53.372814
3535.3799,53.386263
3537.2436,53.332312
3539.1073,53.487679
3540.9709,53.534284
3542.8346,53.514982
3544.6983,53.387785
3546.5620,53.404370
3548.4256,53.478441
3550.2893,53.708289
3552.1530,53.712929
3554.0166,53.756491
3555.8803,53.773373
3557.7440,53.867448
3559.6076,53.877441
3561.4713,53.921848
3563.3350,53.920642
3565.1986,53.880574
3567.0623,53.629911
3568.9260,53.667104
3570.7896,53.867012
3572.6533,54.042296
3574.5170,54.010742
3576.3807,54.143459
3578.2443,54.194470
3580.1080,54.178463
3581.9717,54.040651
3583.8353,54.239731
3585.6990,54.194473
3587.5627,53.925662
3589.4263,53.791339
3591.2900,54.155176
3593.1537,54.273454
3595.0173,54.257080
3596.8810,54.179942
3598.7447,54.306783
3600.6084,54.360016
3602.4720,54.424217
3604.3357,54.510755
3606.1994,54.583457
3608.0630,54.458805
3609.9267,54.407701
3611.7904,54.329695
3613.6540,54.310586
3615.5177,54.365744
3617.3814,54.573463
3619.2450,54.334479
3621.1087,54.301387
3622.9724,54.586377
3624.8360,54.881533
3626.6997,54.746609
3628.5634,54.344839
3630.4271,53.873684
3632.2907,54.147386
3634.1544,54.470983
3636.0181,54.699289
3637.8817,54.800916
3639.7454,54.990509
3641.6091,55.118843
3643.4727,55.159167
3645.3364,55.075571
3647.2001,54.941155
3649.0637,54.256692
3650.9274,54.031819
3652.7911,54.344771
3654.6547,54.665385
3656.5184,54.468512
3658.3821,54.517018
3660.2458,54.815590
3662.1094,55.011918
3663.9731,55.096656
3665.8368,55.209743
3667.7004,55.130443
3669.5641,54.913210
3671.4278,54.628892
3673.2914,54.734233
3675.1551,54.387541
3677.0188,54.147125
3678.8824,54.578630
3680.7461,54.906677
3682.6098,54.921492
3684.4735,55.124729
3686.3371,55.161179
3688.2008,54.749931
3690.0645,54.286410
3691.9281,54.423193
3693.7918,54.601294
3695.6555,54.948456
3697.5191,55.080615
3699.3828,54.996686
3701.2465,54.739668
3703.1101,54.726907
3704.9738,54.922049
3706.8375,55.172162
3708.7011,55.016825
3710.5648,54.800085
3712.4285,54.436609
3714.2922,54.588533
3716.1558,54.885331
3718.0195,54.984595
3719.8832,54.951600
3721.7468,54.936338
3723.6105,54.781504
3725.4742,54.844007
3727.3378,54.875156
3729.2015,55.110128
3731.0652,55.074878
3732.9288,54.942486
3734.7925,54.624287
3736.6562,54.506516
3738.5199,54.811402
3740.3835,55.308864
3742.2472,55.316492
3744.1109,54.834397
3745.9745,54.267904
3747.8382,54.689174
3749.7019,54.522081
3751.5655,54.102571
3753.4292,54.151388
3755.2929,54.560454
3757.1565,54.766040
3759.0202,54.797176
3760.8839,54.676618
3762.7475,54.783130
3764.6112,54.759280
3766.4749,54.603077
3768.3386,54.512996
3770.2022,54.572069
3772.0659,54.550088
3773.9296,54.738168
3775.7932,54.815318
3777.6569,54.785065
3779.5206,54.455668
3781.3842,54.427977
3783.2479,54.621394
3785.1116,54.740497
3786.9752,54.716201
3788.8389,54.819426
3790.7026,54.887777
3792.5662,54.997473
3794.4299,54.954300
3796.2936,54.904122
3798.1573,54.715986
3800.0209,54.845355
3801.8846,54.524345
3803.7483,54.389942
3805.6119,54.615985
3807.4756,54.574313
3809.3393,54.565889
3811.2029,55.029686
3813.0666,55.196286
3814.9303,55.039728
3816.7939,54.547957
3818.6576,54.538145
3820.5213,54.522996
3822.3850,54.345441
3824.2486,54.589113
3826.1123,54.895471
3827.9760,54.935338
3829.8396,55.125294
3831.7033,55.032193
3833.5670,54.962463
3835.4306,54.878904
3837.2943,54.708314
3839.1580,54.309174
3841.0216,54.398244
3842.8853,54.638271
3844.7490,54.936273
3846.6126,55.244210
3848.4763,55.563324
3850.3400,55.487040
3852.2037,54.876141
3854.0673,53.885424
3855.9310,53.983591
3857.7947,54.769327
3859.6583,55.189067
3861.5220,55.033162
3863.3857,54.904399
3865.2493,54.784677
3867.1130,54.907935
3868.9767,54.858352
3870.8403,54.547130
3872.7040,54.597953
3874.5677,54.951926
3876.4314,55.009801
3878.2950,55.089968
3880.1587,54.944831
3882.0224,54.878664
3883.8860,54.868485
3885.7497,54.813898
3887.6134,54.769306
3889.4770,55.054280
3891.3407,54.903213
3893.2044,54.860784
3895.0680,55.180396
3896.9317,55.411953
3898.7954,55.136758
3900.6590,54.792128
3902.5227,54.598817
3904.3864,54.602748
3906.2501,54.600070
3908.1137,54.862494
3909.9774,54.994116
3911.8411,55.100701
3913.7047,55.137705
3915.5684,55.118853
3917.4321,54.962885
3919.2957,55.010102
3921.1594,55.022112
3923.0231,55.093002
3924.8867,54.973461
3926.7504,54.978774
3928.6141,55.038978
3930.4777,55.062403
3932.3414,54.943279
3934.2051,55.036545
3936.0688,55.111053
3937.9324,55.150136
3939.7961,55.091268
3941.6598,55.085389
3943.5234,55.004633
3945.3871,55.178722
3947.2508,55.235264
3949.1144,55.109127
3950.9781,55.002292
3952.8418,55.186859
3954.7054,55.160504
3956.5691,55.161902
3958.4328,55.149083
3960.2965,55.196621
3962.1601,55.146086
3964.0238,55.249841
3965.8875,55.253948
3967.7511,55.221977
3969.6148,55.197689
3971.4785,55.349057
3973.3421,55.304244
3975.2058,55.272735
3977.0695,55.151249
3978.9331,55.204541
3980.7968,55.299683
3982.6605,55.352892
3984.5241,55.258897
3986.3878,55.175868
3988.2515,55.142599
3990.1152,55.317866
3991.9788,55.199233
3993.8425,55.135256
3995.7062,55.188148
3997.5698,55.358539
3999.4335,55.383183
