Wavenumber,Intensity
400.6888,25.063209
402.5525,23.211457
404.4162,24.546330
406.2798,20.758441
408.1435,22.476680
410.0072,20.374778
411.8708,20.153468
413.7345,19.628188
415.5982,21.573449
417.4618,20.432655
419.3255,21.419567
421.1892,19.332248
423.0528,19.367281
424.9165,17.839212
426.7802,18.418355
428.6439,17.935629
430.5075,18.379492
432.3712,17.731308
434.2349,17.993485
436.0985,17.445238
437.9622,18.256853
439.8259,18.026006
441.6895,18.598783
443.5532,18.197877
445.4169,18.501737
447.2805,18.213745
449.1442,18.398275
451.0079,18.161628
452.8715,18.198150
454.7352,17.835109
456.5989,18.192346
458.4626,17.853178
460.3262,18.186106
462.1899,17.927644
464.0536,18.014771
465.9172,17.823645
467.7809,17.892123
469.6446,17.677195
471.5082,18.022258
473.3719,17.897876
475.2356,18.041412
477.0992,17.815153
478.9629,17.896326
480.8266,17.900144
482.6902,18.170197
484.5539,17.818682
486.4176,17.743744
488.2813,17.542286
490.1449,17.660992
492.0086,17.595769
493.8723,17.777343
495.7359,17.541802
497.5996,17.578437
499.4633,17.429522
501.3269,17.510979
503.1906,17.381176
505.0543,17.579648
506.9179,17.634916
508.7816,17.901798
510.6453,17.900724
512.5090,18.171975
514.3726,18.188829
516.2363,18.431888
518.1000,18.468950
519.9636,18.593438
521.8273,18.516514
523.6910,18.653755
525.5546,18.628381
527.4183,18.743913
529.2820,18.702340
531.1456,18.800132
533.0093,18.751245
534.8730,18.880836
536.7366,18.898012
538.6003,18.965129
540.4640,18.842621
542.3277,18.918637
544.1913,18.859695
546.0550,18.889422
547.9187,18.929222
549.7823,19.057677
551.6460,18.947239
553.5097,18.967925
555.3733,18.908166
557.2370,18.968756
559.1007,18.934887
560.9643,19.025567
562.8280,19.023057
564.6917,19.162057
566.5554,19.171814
568.4190,19.253779
570.2827,19.257604
572.1464,19.327613
574.0100,19.235324
575.8737,19.220467
577.7374,19.201137
579.6010,19.299003
581.4647,19.223105
583.3284,19.252227
585.1920,19.179056
587.0557,19.275330
588.9194,19.313878
590.7830,19.360984
592.6467,19.251504
594.5104,19.229160
596.3741,19.226286
598.2377,19.300800
600.1014,19.276305
601.9651,19.265080
603.8287,19.240298
605.6924,19.315524
607.5561,19.299939
609.4197,19.353935
611.2834,19.423744
613.1471,19.531092
615.0107,19.519437
616.8744,19.528013
618.7381,19.527820
620.6017,19.577340
622.4654,19.559831
624.3291,19.617415
626.1928,19.699465
628.0564,19.765683
629.9201,19.750975
631.7838,19.789518
633.6474,19.861205
635.5111,19.958259
637.3748,19.934688
639.2384,19.968249
641.1021,19.950719
642.9658,20.006859
644.8294,20.024554
646.6931,20.019676
648.5568,19.958852
650.4205,20.018546
652.2841,20.046584
654.1478,20.072285
656.0115,20.048948
657.8751,20.020212
659.7388,20.004498
661.6025,20.037742
663.4661,20.097689
665.3298,20.333568
667.1935,20.275645
669.0571,19.963462
670.9208,20.163306
672.7845,20.335822
674.6481,20.331121
676.5118,20.350528
678.3755,20.390723
680.2392,20.466906
682.1028,20.463567
683.9665,20.495389
685.8302,20.509749
687.6938,20.520652
689.5575,20.467630
691.4212,20.468105
693.2848,20.455946
695.1485,20.450901
697.0122,20.430094
698.8758,20.471985
700.7395,20.553167
702.6032,20.571477
704.4669,20.465386
706.3305,20.471457
708.1942,20.484435
710.0579,20.479006
711.9215,20.445621
713.7852,20.424551
715.6489,20.351018
717.5125,20.319171
719.3762,20.261041
721.2399,20.162907
723.1035,20.043241
724.9672,19.925876
726.8309,19.766182
728.6945,19.606275
730.5582,19.401302
732.4219,19.197149
734.2856,19.089959
736.1492,19.220636
738.0129,19.512853
739.8766,19.902534
741.7402,20.224357
743.6039,20.443984
745.4676,20.539923
747.3312,20.608801
749.1949,20.637229
751.0586,20.688332
752.9222,20.806756
754.7859,20.968396
756.6496,21.063033
758.5132,21.172610
760.3769,21.261885
762.2406,21.350101
764.1043,21.398315
765.9679,21.475562
767.8316,21.551771
769.6953,21.621849
771.5589,21.632962
773.4226,21.656246
775.2863,21.684689
777.1499,21.707420
779.0136,21.676617
780.8773,21.673086
782.7409,21.672006
784.6046,21.674278
786.4683,21.652955
788.3320,21.644626
790.1956,21.611362
792.0593,21.568158
793.9230,21.505756
795.7866,21.452997
797.6503,21.367848
799.5140,21.290717
801.3776,21.234899
803.2413,21.243871
805.1050,21.282779
806.9686,21.384075
808.8323,21.458200
810.6960,21.510212
812.5596,21.555372
814.4233,21.578639
816.2870,21.541856
818.1507,21.500848
820.0143,21.441337
821.8780,21.387502
823.7417,21.299427
825.6053,21.223842
827.4690,21.161964
829.3327,21.102564
831.1963,20.983240
833.0600,20.838038
834.9237,20.754350
836.7873,20.798878
838.6510,20.958327
840.5147,21.241282
842.3784,21.566503
844.2420,21.963603
846.1057,22.297126
847.9694,22.518518
849.8330,22.675819
851.6967,22.796217
853.5604,22.832279
855.4240,22.856419
857.2877,22.877487
859.1514,22.868010
861.0150,22.822415
862.8787,22.811573
864.7424,22.782476
866.6060,22.752718
868.4697,22.737946
870.3334,22.723883
872.1971,22.674726
874.0607,22.624727
875.9244,22.570687
877.7881,22.543388
879.6517,22.501430
881.5154,22.462645
883.3791,22.389568
885.2427,22.295294
887.1064,22.186253
888.9701,22.085323
890.8337,21.963931
892.6974,21.876688
894.5611,21.760397
896.4247,21.647869
898.2884,21.580982
900.1521,21.568181
902.0158,21.565129
903.8794,21.583170
905.7431,21.583438
907.6068,21.542571
909.4704,21.454606
911.3341,21.343644
913.1978,21.211335
915.0614,21.075717
916.9251,20.903347
918.7888,20.716432
920.6524,20.487344
922.5161,20.251105
924.3798,20.010572
926.2435,19.755487
928.1071,19.473380
929.9708,19.239094
931.8345,19.046226
933.6981,18.914524
935.5618,18.875690
937.4255,18.953026
939.2891,19.103266
941.1528,19.307816
943.0165,19.558995
944.8801,19.825791
946.7438,20.011327
948.6075,20.139330
950.4711,20.244753
952.3348,20.318609
954.1985,20.297354
956.0622,20.226671
957.9258,20.148365
959.7895,20.140464
961.6532,20.229729
963.5168,20.435388
965.3805,20.704589
967.2442,20.960647
969.1078,21.112132
970.9715,21.171863
972.8352,21.133294
974.6988,21.041259
976.5625,20.879240
978.4262,20.659786
980.2899,20.429035
982.1535,20.211146
984.0172,19.998282
985.8809,19.814916
987.7445,19.634213
989.6082,19.477482
991.4719,19.343005
993.3355,19.238842
995.1992,19.129999
997.0629,19.026170
998.9265,18.922298
1000.7902,18.814719
1002.6539,18.698513
1004.5175,18.584131
1006.3812,18.429318
1008.2449,18.245644
1010.1086,18.032522
1011.9722,17.810387
1013.8359,17.618417
1015.6996,17.489996
1017.5632,17.423797
1019.4269,17.477950
1021.2906,17.630128
1023.1542,17.804448
1025.0179,17.938556
1026.8816,18.057472
1028.7452,18.157841
1030.6089,18.252868
1032.4726,18.319495
1034.3362,18.398499
1036.1999,18.472791
1038.0636,18.510628
1039.9273,18.495625
1041.7909,18.449528
1043.6546,18.338195
1045.5183,18.166708
1047.3819,17.949356
1049.2456,17.717514
1051.1093,17.429797
1052.9729,17.087260
1054.8366,16.757058
1056.7003,16.563060
1058.5639,16.567148
1060.4276,16.782313
1062.2913,17.177158
1064.1550,17.691439
1066.0186,18.235813
1067.8823,18.789580
1069.7460,19.328565
1071.6096,19.809085
1073.4733,20.165193
1075.3370,20.414220
1077.2006,20.541581
1079.0643,20.554331
1080.9280,20.460134
1082.7916,20.323118
1084.6553,20.155713
1086.5190,19.981482
1088.3826,19.813114
1090.2463,19.672203
1092.1100,19.511741
1093.9737,19.309634
1095.8373,19.084837
1097.7010,18.863752
1099.5647,18.614296
1101.4283,18.360188
1103.2920,18.123067
1105.1557,17.933681
1107.0193,17.757649
1108.8830,17.601083
1110.7467,17.468782
1112.6103,17.392360
1114.4740,17.428862
1116.3377,17.609796
1118.2014,17.887981
1120.0650,18.215372
1121.9287,18.461668
1123.7924,18.566373
1125.6560,18.516854
1127.5197,18.313289
1129.3834,17.943470
1131.2470,17.437420
1133.1107,16.819866
1134.9744,16.129372
1136.8380,15.336261
1138.7017,14.493212
1140.5654,13.621979
1142.4290,12.792494
1144.2927,12.096255
1146.1564,11.647298
1148.0201,11.412629
1149.8837,11.293164
1151.7474,11.234391
1153.6111,11.279979
1155.4747,11.500107
1157.3384,11.973636
1159.2021,12.689408
1161.0657,13.615427
1162.9294,14.658865
1164.7931,15.765858
1166.6567,16.895167
1168.5204,18.043360
1170.3841,19.196844
1172.2477,20.408131
1174.1114,21.649085
1175.9751,22.873214
1177.8388,24.050360
1179.7024,25.155839
1181.5661,26.147891
1183.4298,26.985777
1185.2934,27.659440
1187.1571,28.181277
1189.0208,28.524711
1190.8844,28.712288
1192.7481,28.768673
1194.6118,28.721673
1196.4754,28.588882
1198.3391,28.391094
1200.2028,28.132635
1202.0665,27.845681
1203.9301,27.552107
1205.7938,27.263776
1207.6575,26.989283
1209.5211,26.721185
1211.3848,26.422906
1213.2485,26.111104
1215.1121,25.793120
1216.9758,25.475726
1218.8395,25.156770
1220.7031,24.845480
1222.5668,24.527195
1224.4305,24.252679
1226.2941,24.038281
1228.1578,23.889096
1230.0215,23.798191
1231.8852,23.782131
1233.7488,23.820367
1235.6125,23.922787
1237.4762,24.103024
1239.3398,24.367127
1241.2035,24.730657
1243.0672,25.194338
1244.9308,25.695385
1246.7945,26.181732
1248.6582,26.610829
1250.5218,26.998429
1252.3855,27.382576
1254.2492,27.778287
1256.1129,28.179903
1257.9765,28.638681
1259.8402,29.154253
1261.7039,29.717304
1263.5675,30.303053
1265.4312,30.879008
1267.2949,31.426204
1269.1585,32.037654
1271.0222,32.798523
1272.8859,33.715725
1274.7495,34.705331
1276.6132,35.644594
1278.4769,36.435844
1280.3405,37.020257
1282.2042,37.400755
1284.0679,37.611501
1285.9316,37.678506
1287.7952,37.629476
1289.6589,37.481255
1291.5226,37.280635
1293.3862,37.044549
1295.2499,36.769705
1297.1136,36.484920
1298.9772,36.276862
1300.8409,36.153396
1302.7046,36.083717
1304.5682,36.059977
1306.4319,36.093642
1308.2956,36.162340
1310.1592,36.250051
1312.0229,36.313499
1313.8866,36.345801
1315.7503,36.343533
1317.6139,36.224863
1319.4776,36.006194
1321.3413,35.802573
1323.2049,35.619961
1325.0686,35.490677
1326.9323,35.420294
1328.7959,35.348988
1330.6596,35.286048
1332.5233,35.285303
1334.3869,35.325969
1336.2506,35.333389
1338.1143,35.223247
1339.9780,35.075570
1341.8416,35.178052
1343.7053,35.396279
1345.5690,35.458216
1347.4326,35.403420
1349.2963,35.259612
1351.1600,35.090921
1353.0236,34.904997
1354.8873,34.697870
1356.7510,34.583216
1358.6146,34.568736
1360.4783,34.412072
1362.3420,33.972723
1364.2056,33.709963
1366.0693,33.766283
1367.9330,33.662538
1369.7967,33.553862
1371.6603,33.604891
1373.5240,33.477933
1375.3877,33.406801
1377.2513,33.687880
1379.1150,34.062272
1380.9787,34.541064
1382.8423,35.091396
1384.7060,35.430449
1386.5697,35.196061
1388.4333,34.782432
1390.2970,34.861964
1392.1607,35.036127
1394.0244,34.945159
1395.8880,35.041457
1397.7517,35.458943
1399.6154,35.927685
1401.4790,36.700418
1403.3427,37.351231
1405.2064,37.628489
1407.0700,37.986102
1408.9337,38.246873
1410.7974,38.216082
1412.6610,38.171155
1414.5247,38.221707
1416.3884,38.080491
1418.2520,37.136828
1420.1157,36.155124
1421.9794,36.098662
1423.8431,35.647348
1425.7067,34.999773
1427.5704,34.562789
1429.4341,33.753992
1431.2977,33.120016
1433.1614,33.090050
1435.0251,32.809530
1436.8887,31.827123
1438.7524,31.606146
1440.6161,31.715378
1442.4797,31.417248
1444.3434,31.183409
1446.2071,31.019701
1448.0707,30.932300
1449.9344,31.335422
1451.7981,32.140244
1453.6618,33.009486
1455.5254,33.286589
1457.3891,32.804209
1459.2528,33.437910
1461.1164,34.539078
1462.9801,35.150827
1464.8438,35.405729
1466.7074,36.347580
1468.5711,37.923460
1470.4348,39.196437
1472.2984,39.737420
1474.1621,40.272379
1476.0258,41.028173
1477.8895,41.804435
1479.7531,42.426559
1481.6168,42.686370
1483.4805,42.951298
1485.3441,43.155135
1487.2078,42.896235
1489.0715,42.119637
1490.9351,41.632361
1492.7988,42.116423
1494.6625,42.318002
1496.5261,41.531855
1498.3898,41.007698
1500.2535,41.255240
1502.1171,41.971247
1503.9808,42.531904
1505.8445,41.297908
1507.7082,39.401343
1509.5718,39.986552
1511.4355,40.588677
1513.2992,40.869721
1515.1628,40.920132
1517.0265,40.607295
1518.8902,40.671120
1520.7538,40.133014
1522.6175,39.486023
1524.4812,39.808850
1526.3448,39.723255
1528.2085,39.710421
1530.0722,40.152835
1531.9359,40.088085
1533.7995,39.491847
1535.6632,40.145501
1537.5269,40.889792
1539.3905,39.662608
1541.2542,38.357002
1543.1179,38.550385
1544.9815,38.647458
1546.8452,39.051591
1548.7089,39.296152
1550.5725,39.221333
1552.4362,39.505575
1554.2999,39.836518
1556.1635,40.140782
1558.0272,38.745238
1559.8909,36.605112
1561.7546,37.874269
1563.6182,38.800631
1565.4819,38.909349
1567.3456,38.929656
1569.2092,38.344251
1571.0729,38.183629
1572.9366,38.939555
1574.8002,38.730997
1576.6639,37.558188
1578.5276,37.710220
1580.3912,38.181831
1582.2549,38.161399
1584.1186,38.073964
1585.9822,38.016672
1587.8459,37.962583
1589.7096,37.914935
1591.5733,37.878509
1593.4369,37.790989
1595.3006,37.679094
1597.1643,37.641135
1599.0279,37.636224
1600.8916,37.544917
1602.7553,37.410340
1604.6189,37.383722
1606.4826,37.355959
1608.3463,37.176105
1610.2099,37.092996
1612.0736,37.314830
1613.9373,37.524060
1615.8010,36.822331
1617.6646,36.054136
1619.5283,36.614842
1621.3920,36.899837
1623.2556,36.308688
1625.1193,36.064556
1626.9830,36.083580
1628.8466,35.970754
1630.7103,36.314751
1632.5740,36.768342
1634.4376,36.084052
1636.3013,34.617963
1638.1650,34.808103
1640.0286,35.386102
1641.8923,35.683043
1643.7560,35.857738
1645.6197,35.244146
1647.4833,34.471376
1649.3470,35.291667
1651.2107,35.654710
1653.0743,33.145524
1654.9380,32.459179
1656.8017,33.665292
1658.6653,34.103197
1660.5290,33.971070
1662.3927,33.351843
1664.2563,33.093775
1666.1200,33.458827
1667.9837,33.161447
1669.8474,32.145843
1671.7110,32.024506
1673.5747,31.978216
1675.4384,31.090275
1677.3020,30.901205
1679.1657,31.171261
1681.0294,31.063839
1682.8930,30.100468
1684.7567,28.160561
1686.6204,28.018745
1688.4840,28.159684
1690.3477,27.788649
1692.2114,27.738283
1694.0750,27.483704
1695.9387,26.332004
1697.8024,25.733781
1699.6661,24.734427
1701.5297,23.437073
1703.3934,23.465088
1705.2571,22.976380
1707.1207,22.250895
1708.9844,21.904141
1710.8481,21.387039
1712.7117,20.627311
1714.5754,19.426582
1716.4391,17.719051
1718.3027,15.914535
1720.1664,14.805793
1722.0301,14.083006
1723.8937,13.506331
1725.7574,13.461290
1727.6211,13.983507
1729.4848,15.103600
1731.3484,16.803138
1733.2121,19.344646
1735.0758,23.020335
1736.9394,26.340018
1738.8031,30.345778
1740.6668,35.393309
1742.5304,39.858890
1744.3941,44.079802
1746.2578,47.790196
1748.1214,50.809927
1749.9851,53.096555
1751.8488,54.655552
1753.7125,55.662617
1755.5761,55.991179
1757.4398,55.837807
1759.3035,55.645454
1761.1671,55.094783
1763.0308,54.527334
1764.8945,54.416140
1766.7581,54.134788
1768.6218,53.637727
1770.4855,53.085474
1772.3491,52.168371
1774.2128,51.798445
1776.0765,51.854062
1777.9401,51.719159
1779.8038,51.361459
1781.6675,51.050881
1783.5312,50.872444
1785.3948,50.669631
1787.2585,50.675702
1789.1222,50.707365
1790.9858,50.209860
1792.8495,49.598851
1794.7132,49.651574
1796.5768,49.824897
1798.4405,49.699751
1800.3042,49.327664
1802.1678,49.063386
1804.0315,49.123275
1805.8952,49.170297
1807.7589,49.093498
1809.6225,48.914389
1811.4862,48.751474
1813.3499,48.765538
1815.2135,48.797858
1817.0772,48.746030
1818.9409,48.666168
1820.8045,48.637944
1822.6682,48.670452
1824.5319,48.499458
1826.3955,48.395620
1828.2592,48.303689
1830.1229,47.969646
1831.9865,48.013753
1833.8502,48.175664
1835.7139,48.074866
1837.5776,48.019700
1839.4412,48.125721
1841.3049,48.250621
1843.1686,47.940219
1845.0322,47.558842
1846.8959,47.698021
1848.7596,47.774054
1850.6232,47.752602
1852.4869,47.765684
1854.3506,47.752940
1856.2142,47.764732
1858.0779,47.744421
1859.9416,47.704462
1861.8052,47.767372
1863.6689,47.848484
1865.5326,47.800183
1867.3963,47.611180
1869.2599,47.387974
1871.1236,47.475895
1872.9873,47.678649
1874.8509,47.665914
1876.7146,47.613346
1878.5783,47.647866
1880.4419,47.662089
1882.3056,47.694277
1884.1693,47.721445
1886.0329,47.781629
1887.8966,47.734297
1889.7603,47.614493
1891.6240,47.671501
1893.4876,47.698744
1895.3513,47.663978
1897.2150,47.724722
1899.0786,47.781819
1900.9423,47.830446
1902.8060,47.903664
1904.6696,47.925409
1906.5333,47.895412
1908.3970,47.863069
1910.2606,47.956831
1912.1243,48.108688
1913.9880,48.151413
1915.8516,48.195883
1917.7153,48.228956
1919.5790,48.350726
1921.4427,48.433562
1923.3063,48.533043
1925.1700,48.713245
1927.0337,48.794577
1928.8973,48.873351
1930.7610,49.016019
1932.6247,49.132269
1934.4883,49.179348
1936.3520,49.281777
1938.2157,49.554998
1940.0793,49.799259
1941.9430,49.998583
1943.8067,50.141989
1945.6704,50.311894
1947.5340,50.484042
1949.3977,50.718041
1951.2614,50.936553
1953.1250,51.205940
1954.9887,51.578802
1956.8524,51.962145
1958.7160,52.281083
1960.5797,52.686562
1962.4434,53.179245
1964.3070,53.537307
1966.1707,53.791430
1968.0344,54.158628
1969.8980,54.411760
1971.7617,54.878741
1973.6254,54.995878
1975.4891,55.172411
1977.3527,55.207706
1979.2164,54.775792
1981.0801,54.086191
1982.9437,53.596078
1984.8074,53.394869
1986.6711,53.247069
1988.5347,53.013468
1990.3984,52.990835
1992.2621,52.976336
1994.1257,52.968143
1995.9894,52.996589
1997.8531,53.154777
1999.7167,53.186384
2001.5804,53.339208
2003.4441,53.742380
2005.3078,54.340905
2007.1714,54.728906
2009.0351,54.985323
2010.8988,54.992543
2012.7624,55.086709
2014.6261,55.291393
2016.4898,55.539980
2018.3534,55.690639
2020.2171,55.946632
2022.0808,55.801401
2023.9444,55.759400
2025.8081,55.729774
2027.6718,55.965192
2029.5355,56.133525
2031.3991,55.814255
2033.2628,55.482292
2035.1265,55.267189
2036.9901,54.830201
2038.8538,54.591310
2040.7175,54.210178
2042.5811,53.773209
2044.4448,53.239217
2046.3085,52.659577
2048.1721,52.022363
2050.0358,51.500772
2051.8995,51.157528
2053.7631,50.946161
2055.6268,50.755412
2057.4905,50.503875
2059.3542,50.174445
2061.2178,50.015018
2063.0815,49.765923
2064.9452,49.652748
2066.8088,49.623629
2068.6725,49.628551
2070.5362,49.488059
2072.3998,49.205032
2074.2635,48.887592
2076.1272,48.770324
2077.9908,48.791534
2079.8545,48.685951
2081.7182,48.526154
2083.5819,48.389995
2085.4455,48.302982
2087.3092,48.361115
2089.1729,48.325430
2091.0365,48.313985
2092.9002,48.334810
2094.7639,48.305185
2096.6275,48.381838
2098.4912,48.599196
2100.3549,48.609914
2102.2185,48.561151
2104.0822,48.454929
2105.9459,48.446116
2107.8095,48.388221
2109.6732,48.282479
2111.5369,48.221120
2113.4006,48.194979
2115.2642,48.174388
2117.1279,48.247865
2118.9916,48.336567
2120.8552,48.476940
2122.7189,48.634275
2124.5826,48.872174
2126.4462,49.110325
2128.3099,49.309561
2130.1736,49.677483
2132.0372,50.204035
2133.9009,50.500337
2135.7646,50.962515
2137.6282,51.296875
2139.4919,51.391360
2141.3556,51.907886
2143.2193,52.443738
2145.0829,52.512977
2146.9466,52.964733
2148.8103,53.774029
2150.6739,54.571070
2152.5376,55.186068
2154.4013,56.077931
2156.2649,57.283764
2158.1286,58.170575
2159.9923,57.727417
2161.8559,56.953016
2163.7196,56.199878
2165.5833,55.690246
2167.4470,54.789245
2169.3106,54.286632
2171.1743,54.079752
2173.0380,53.958852
2174.9016,54.018156
2176.7653,54.069486
2178.6290,54.073472
2180.4926,54.151299
2182.3563,53.499501
2184.2200,53.039404
2186.0836,53.000774
2187.9473,52.748304
2189.8110,52.438730
2191.6746,52.437220
2193.5383,52.314262
2195.4020,52.065248
2197.2657,51.958233
2199.1293,51.914474
2200.9930,51.601172
2202.8567,51.271656
2204.7203,51.034490
2206.5840,51.100632
2208.4477,51.337725
2210.3113,51.272033
2212.1750,50.951191
2214.0387,50.847648
2215.9023,50.809033
2217.7660,50.784190
2219.6297,50.611243
2221.4934,50.387238
2223.3570,50.008691
2225.2207,49.881900
2227.0844,49.900271
2228.9480,49.776310
2230.8117,49.666655
2232.6754,49.558346
2234.5390,49.385187
2236.4027,49.271413
2238.2664,49.265565
2240.1300,49.149163
2241.9937,48.931914
2243.8574,48.906783
2245.7210,48.761212
2247.5847,48.695655
2249.4484,48.780615
2251.3121,48.682570
2253.1757,48.408725
2255.0394,48.325571
2256.9031,48.279369
2258.7667,48.151166
2260.6304,47.978963
2262.4941,47.896885
2264.3577,47.721203
2266.2214,47.559607
2268.0851,47.493049
2269.9487,47.490078
2271.8124,47.427266
2273.6761,47.344315
2275.5397,47.109280
2277.4034,46.948376
2279.2671,46.917318
2281.1308,46.699187
2282.9944,46.517695
2284.8581,46.404769
2286.7218,46.266512
2288.5854,46.155216
2290.4491,46.035206
2292.3128,45.974404
2294.1764,45.978226
2296.0401,45.970365
2297.9038,45.913091
2299.7674,45.896348
2301.6311,45.854373
2303.4948,45.841581
2305.3585,45.824232
2307.2221,45.762698
2309.0858,45.741562
2310.9495,45.714677
2312.8131,45.625820
2314.6768,45.603663
2316.5405,45.548609
2318.4041,45.428404
2320.2678,45.236782
2322.1315,45.139107
2323.9951,45.233510
2325.8588,45.385082
2327.7225,45.383048
2329.5861,45.338646
2331.4498,45.330814
2333.3135,45.304863
2335.1772,45.329361
2337.0408,45.368479
2338.9045,45.317144
2340.7682,45.191211
2342.6318,45.099117
2344.4955,45.078368
2346.3592,45.208027
2348.2228,45.582463
2350.0865,45.959981
2351.9502,46.079655
2353.8138,45.937482
2355.6775,45.853927
2357.5412,45.887037
2359.4049,45.804166
2361.2685,45.679776
2363.1322,45.579981
2364.9959,45.543809
2366.8595,45.524871
2368.7232,45.420396
2370.5869,45.368781
2372.4505,45.377578
2374.3142,45.403050
2376.1779,45.484941
2378.0415,45.575156
2379.9052,45.632815
2381.7689,45.722726
2383.6325,45.796089
2385.4962,45.833141
2387.3599,45.888782
2389.2236,45.952858
2391.0872,46.012038
2392.9509,46.008918
2394.8146,45.989245
2396.6782,46.016057
2398.5419,45.975468
2400.4056,46.006701
2402.2692,46.088886
2404.1329,46.119859
2405.9966,46.125929
2407.8602,46.151480
2409.7239,46.237586
2411.5876,46.229544
2413.4512,46.245561
2415.3149,46.262116
2417.1786,46.243819
2419.0423,46.269210
2420.9059,46.293767
2422.7696,46.337617
2424.6333,46.444536
2426.4969,46.519649
2428.3606,46.439754
2430.2243,46.365389
2432.0879,46.407037
2433.9516,46.395591
2435.8153,46.350131
2437.6789,46.383358
2439.5426,46.380449
2441.4063,46.356665
2443.2700,46.386543
2445.1336,46.382877
2446.9973,46.413773
2448.8610,46.527054
2450.7246,46.562880
2452.5883,46.494177
2454.4520,46.477045
2456.3156,46.522423
2458.1793,46.454290
2460.0430,46.390292
2461.9066,46.393463
2463.7703,46.442847
2465.6340,46.455291
2467.4976,46.419775
2469.3613,46.493331
2471.2250,46.626464
2473.0887,46.621497
2474.9523,46.563844
2476.8160,46.612957
2478.6797,46.580049
2480.5433,46.497715
2482.4070,46.553298
2484.2707,46.596869
2486.1343,46.585524
2487.9980,46.608831
2489.8617,46.579620
2491.7253,46.573287
2493.5890,46.594182
2495.4527,46.654496
2497.3164,46.702687
2499.1800,46.696721
2501.0437,46.636334
2502.9074,46.614355
2504.7710,46.643123
2506.6347,46.674829
2508.4984,46.654867
2510.3620,46.675449
2512.2257,46.649641
2514.0894,46.563113
2515.9530,46.609371
2517.8167,46.704732
2519.6804,46.645067
2521.5440,46.568002
2523.4077,46.543816
2525.2714,46.590430
2527.1351,46.623372
2528.9987,46.632035
2530.8624,46.552730
2532.7261,46.506690
2534.5897,46.617547
2536.4534,46.659160
2538.3171,46.520533
2540.1807,46.496442
2542.0444,46.580711
2543.9081,46.529898
2545.7717,46.498404
2547.6354,46.527997
2549.4991,46.514536
2551.3627,46.472827
2553.2264,46.469866
2555.0901,46.499632
2556.9538,46.539446
2558.8174,46.505910
2560.6811,46.450133
2562.5448,46.433184
2564.4084,46.299348
2566.2721,46.277484
2568.1358,46.343040
2569.9994,46.314783
2571.8631,46.206514
2573.7268,46.236915
2575.5904,46.259825
2577.4541,46.146977
2579.3178,46.179326
2581.1815,46.246937
2583.0451,46.181846
2584.9088,46.130600
2586.7725,46.139083
2588.6361,46.154440
2590.4998,46.081410
2592.3635,46.014480
2594.2271,45.965595
2596.0908,45.992125
2597.9545,45.982627
2599.8181,45.921474
2601.6818,45.830440
2603.5455,45.779964
2605.4091,45.743343
2607.2728,45.780436
2609.1365,45.727376
2611.0002,45.668398
2612.8638,45.695839
2614.7275,45.659127
2616.5912,45.556704
2618.4548,45.581495
2620.3185,45.595801
2622.1822,45.530626
2624.0458,45.476954
2625.9095,45.521987
2627.7732,45.484398
2629.6368,45.339226
2631.5005,45.251135
2633.3642,45.299267
2635.2279,45.248036
2637.0915,45.224166
2638.9552,45.180038
2640.8189,45.145587
2642.6825,45.150945
2644.5462,45.116082
2646.4099,45.060407
2648.2735,45.030764
2650.1372,44.983894
2652.0009,44.957580
2653.8645,44.919571
2655.7282,44.944789
2657.5919,44.935594
2659.4555,44.970714
2661.3192,44.983593
2663.1829,44.973779
2665.0466,44.951878
2666.9102,44.977193
2668.7739,44.983389
2670.6376,45.031719
2672.5012,45.049237
2674.3649,45.026004
2676.2286,44.997405
2678.0922,45.024666
2679.9559,45.048370
2681.8196,45.082429
2683.6832,45.074857
2685.5469,45.062321
2687.4106,45.007544
2689.2742,44.970873
2691.1379,44.948314
2693.0016,44.985039
2694.8653,45.035253
2696.7289,45.066475
2698.5926,45.062924
2700.4563,45.086149
2702.3199,45.053920
2704.1836,44.976332
2706.0473,44.920815
2707.9109,44.945591
2709.7746,44.946894
2711.6383,44.954019
2713.5019,44.964925
2715.3656,44.998932
2717.2293,44.968458
2719.0930,44.907428
2720.9566,44.887742
2722.8203,44.928038
2724.6840,44.918011
2726.5476,44.917390
2728.4113,44.886023
2730.2750,44.883088
2732.1386,44.870575
2734.0023,44.869429
2735.8660,44.875432
2737.7296,44.884413
2739.5933,44.902470
2741.4570,44.918952
2743.3206,44.883206
2745.1843,44.913390
2747.0480,44.874541
2748.9117,44.879423
2750.7753,44.918310
2752.6390,44.888436
2754.5027,44.842700
2756.3663,44.825664
2758.2300,44.788453
2760.0937,44.788319
2761.9573,44.791710
2763.8210,44.807499
2765.6847,44.738840
2767.5483,44.703281
2769.4120,44.667092
2771.2757,44.648336
2773.1394,44.628556
2775.0030,44.622518
2776.8667,44.569705
2778.7304,44.547193
2780.5940,44.541583
2782.4577,44.523051
2784.3214,44.491173
2786.1850,44.491581
2788.0487,44.477818
2789.9124,44.494249
2791.7760,44.371897
2793.6397,44.254550
2795.5034,44.192288
2797.3670,44.203447
2799.2307,44.121615
2801.0944,44.039907
2802.9581,43.973982
2804.8217,43.892945
2806.6854,43.823963
2808.5491,43.787037
2810.4127,43.723506
2812.2764,43.757186
2814.1401,43.702552
2816.0037,43.565992
2817.8674,43.407171
2819.7311,43.315659
2821.5947,43.216235
2823.4584,43.117260
2825.3221,42.961799
2827.1857,42.880014
2829.0494,42.772300
2830.9131,42.598453
2832.7768,42.383767
2834.6404,42.285840
2836.5041,42.169498
2838.3678,41.927857
2840.2314,41.535454
2842.0951,41.214676
2843.9588,41.072765
2845.8224,41.004507
2847.6861,40.839792
2849.5498,40.682749
2851.4134,40.408096
2853.2771,40.229560
2855.1408,39.885676
2857.0045,39.535940
2858.8681,39.133351
2860.7318,38.803414
2862.5955,38.460620
2864.4591,38.192833
2866.3228,38.020657
2868.1865,37.921227
2870.0501,37.875944
2871.9138,38.145052
2873.7775,38.442930
2875.6411,38.928989
2877.5048,39.706702
2879.3685,40.542064
2881.2321,41.021208
2883.0958,41.260851
2884.9595,41.207729
2886.8232,41.057561
2888.6868,40.816372
2890.5505,40.505774
2892.4142,40.176023
2894.2778,40.067901
2896.1415,39.927685
2898.0052,39.813433
2899.8688,39.642198
2901.7325,39.526838
2903.5962,39.354198
2905.4598,39.104689
2907.3235,38.905646
2909.1872,38.806854
2911.0509,38.568305
2912.9145,38.350260
2914.7782,38.113650
2916.6419,37.868595
2918.5055,37.610861
2920.3692,37.508641
2922.2329,37.265972
2924.0965,37.035050
2925.9602,36.844219
2927.8239,36.795054
2929.6875,36.769761
2931.5512,36.977828
2933.4149,37.204671
2935.2785,37.581509
2937.1422,37.945620
2939.0059,38.405392
2940.8696,38.694278
2942.7332,38.756695
2944.5969,38.531168
2946.4606,38.269161
2948.3242,37.857963
2950.1879,37.391923
2952.0516,36.896884
2953.9152,36.693708
2955.7789,36.640296
2957.6426,37.081469
2959.5062,37.909997
2961.3699,39.187087
2963.2336,40.655570
2965.0972,42.203499
2966.9609,43.647879
2968.8246,45.070100
2970.6883,46.291305
2972.5519,47.407915
2974.4156,48.280787
2976.2793,49.058103
2978.1429,49.621496
2980.0066,50.101577
2981.8703,50.461355
2983.7339,50.780949
2985.5976,50.990473
2987.4613,51.212734
2989.3249,51.285397
2991.1886,51.345882
2993.0523,51.405173
2994.9160,51.513651
2996.7796,51.478000
2998.6433,51.450171
3000.5070,51.449599
3002.3706,51.468577
3004.2343,51.406157
3006.0980,51.361102
3007.9616,51.228166
3009.8253,51.217778
3011.6890,51.176711
3013.5526,51.092963
3015.4163,50.981828
3017.2800,50.972562
3019.1436,50.900342
3021.0073,50.924861
3022.8710,50.877503
3024.7347,50.784877
3026.5983,50.665617
3028.4620,50.673205
3030.3257,50.623964
3032.1893,50.650597
3034.0530,50.566222
3035.9167,50.510988
3037.7803,50.427978
3039.6440,50.459261
3041.5077,50.431144
3043.3713,50.359374
3045.2350,50.276229
3047.0987,50.303795
3048.9624,50.210732
3050.8260,50.232167
3052.6897,50.278686
3054.5534,50.264722
3056.4170,50.127152
3058.2807,50.102328
3060.1444,50.059032
3062.0080,50.156689
3063.8717,50.118521
3065.7354,50.018957
3067.5990,49.951333
3069.4627,49.944090
3071.3264,49.864816
3073.1900,49.865706
3075.0537,49.903494
3076.9174,49.956347
3078.7811,49.901284
3080.6447,49.926139
3082.5084,49.898179
3084.3721,49.917678
3086.2357,49.914609
3088.0994,49.869123
3089.9631,49.699146
3091.8267,49.696974
3093.6904,49.729104
3095.5541,49.741207
3097.4177,49.617464
3099.2814,49.595815
3101.1451,49.602344
3103.0087,49.665789
3104.8724,49.623394
3106.7361,49.716751
3108.5998,49.728122
3110.4634,49.709570
3112.3271,49.647556
3114.1908,49.652137
3116.0544,49.601304
3117.9181,49.649436
3119.7818,49.533481
3121.6454,49.475649
3123.5091,49.385060
3125.3728,49.462213
3127.2364,49.452559
3129.1001,49.432811
3130.9638,49.399144
3132.8275,49.410723
3134.6911,49.344263
3136.5548,49.351076
3138.4185,49.346638
3140.2821,49.411036
3142.1458,49.324925
3144.0095,49.271670
3145.8731,49.212436
3147.7368,49.315690
3149.6005,49.325855
3151.4641,49.329457
3153.3278,49.228751
3155.1915,49.218961
3157.0551,49.072431
3158.9188,49.115147
3160.7825,49.201014
3162.6462,49.204457
3164.5098,49.104077
3166.3735,49.137945
3168.2372,49.054654
3170.1008,49.076484
3171.9645,49.084414
3173.8282,49.184724
3175.6918,49.101753
3177.5555,49.095326
3179.4192,49.050135
3181.2828,49.075507
3183.1465,48.981779
3185.0102,48.945239
3186.8739,48.917169
3188.7375,48.977984
3190.6012,48.903134
3192.4649,48.941782
3194.3285,48.934519
3196.1922,49.010569
3198.0559,48.949025
3199.9195,49.007751
3201.7832,48.967517
3203.6469,48.942383
3205.5105,48.832530
3207.3742,48.888188
3209.2379,48.919082
3211.1015,48.895392
3212.9652,48.749088
3214.8289,48.742786
3216.6926,48.736060
3218.5562,48.832656
3220.4199,48.789737
3222.2836,48.803771
3224.1472,48.795959
3226.0109,48.868086
3227.8746,48.806539
3229.7382,48.770819
3231.6019,48.664605
3233.4656,48.763150
3235.3292,48.672509
3237.1929,48.736667
3239.0566,48.734542
3240.9202,48.777568
3242.7839,48.608970
3244.6476,48.634184
3246.5113,48.649416
3248.3749,48.724909
3250.2386,48.713141
3252.1023,48.799408
3253.9659,48.671002
3255.8296,48.676216
3257.6933,48.628413
3259.5569,48.688919
3261.4206,48.645155
3263.2843,48.652085
3265.1479,48.545727
3267.0116,48.540520
3268.8753,48.633846
3270.7390,48.784590
3272.6026,48.728942
3274.4663,48.690605
3276.3300,48.507298
3278.1936,48.491670
3280.0573,48.539339
3281.9210,48.617186
3283.7846,48.660223
3285.6483,48.789818
3287.5120,48.777295
3289.3756,48.852699
3291.2393,48.694372
3293.1030,48.663399
3294.9666,48.697970
3296.8303,48.790345
3298.6940,48.688853
3300.5577,48.746256
3302.4213,48.729549
3304.2850,48.745450
3306.1487,48.693132
3308.0123,48.812681
3309.8760,48.791919
3311.7397,48.843836
3313.6033,48.777906
3315.4670,48.779768
3317.3307,48.739033
3319.1943,48.783516
3321.0580,48.756046
3322.9217,48.909497
3324.7854,48.946696
3326.6490,48.977453
3328.5127,48.931164
3330.3764,49.055395
3332.2400,49.088276
3334.1037,49.087628
3335.9674,49.000977
3337.8310,49.056924
3339.6947,48.998114
3341.5584,49.059865
3343.4220,49.066940
3345.2857,49.109459
3347.1494,49.051908
3349.0130,49.126608
3350.8767,49.076598
3352.7404,49.223147
3354.6041,49.256127
3356.4677,49.330109
3358.3314,49.277821
3360.1951,49.313360
3362.0587,49.336647
3363.9224,49.411357
3365.7861,49.324491
3367.6497,49.380732
3369.5134,49.378365
3371.3771,49.444246
3373.2407,49.335650
3375.1044,49.358182
3376.9681,49.376318
3378.8317,49.483861
3380.6954,49.405795
3382.5591,49.459533
3384.4228,49.463332
3386.2864,49.470582
3388.1501,49.309767
3390.0138,49.490694
3391.8774,49.640280
3393.7411,49.770458
3395.6048,49.557469
3397.4684,49.512064
3399.3321,49.613735
3401.1958,49.780014
3403.0594,49.708352
3404.9231,49.709791
3406.7868,49.592916
3408.6505,49.695949
3410.5141,49.688742
3412.3778,49.689840
3414.2415,49.547917
3416.1051,49.490417
3417.9688,49.460379
3419.8325,49.472864
3421.6961,49.455573
3423.5598,49.620657
3425.4235,49.496364
3427.2871,49.590336
3429.1508,49.564995
3431.0145,49.559634
3432.8781,49.479238
3434.7418,49.573589
3436.6055,49.624097
3438.4692,49.663067
3440.3328,49.603158
3442.1965,49.725366
3444.0602,49.660344
3445.9238,49.613627
3447.7875,49.446872
3449.6512,49.562234
3451.5148,49.556360
3453.3785,49.626241
3455.2422,49.771688
3457.1058,49.930153
3458.9695,49.810103
3460.8332,49.908602
3462.6969,49.833877
3464.5605,49.777492
3466.4242,49.922121
3468.2879,50.259854
3470.1515,50.285261
3472.0152,50.272884
3473.8789,50.085820
3475.7425,50.052764
3477.6062,50.169092
3479.4699,50.316476
3481.3335,50.265958
3483.1972,50.322629
3485.0609,50.168533
3486.9245,50.285590
3488.7882,50.320347
3490.6519,50.352199
3492.5156,50.198616
3494.3792,50.332134
3496.2429,50.455129
3498.1066,50.607438
3499.9702,50.608401
3501.8339,50.649548
3503.6976,50.389033
3505.5612,50.531775
3507.4249,50.523007
3509.2886,50.520482
3511.1522,50.465276
3513.0159,50.490124
3514.8796,50.538952
3516.7432,50.778167
3518.6069,50.741317
3520.4706,50.701785
3522.3343,50.576731
3524.1979,50.606410
3526.0616,50.613677
3527.9253,50.590829
3529.7889,50.501513
3531.6526,50.693621
3533.5163,50.664128
3535.3799,50.669221
3537.2436,50.599545
3539.1073,50.492668
3540.9709,50.378898
3542.8346,50.512830
3544.6983,50.585856
3546.5620,50.757589
3548.4256,50.699004
3550.2893,50.730661
3552.1530,50.628813
3554.0166,50.713360
3555.8803,50.667221
3557.7440,50.739052
3559.6076,50.731407
3561.4713,50.831696
3563.3350,50.804594
3565.1986,50.656785
3567.0623,50.292031
3568.9260,50.346060
3570.7896,50.529988
3572.6533,50.828822
3574.5170,50.879975
3576.3807,50.903538
3578.2443,50.856916
3580.1080,50.943004
3581.9717,50.927882
3583.8353,51.020592
3585.6990,50.851118
3587.5627,50.622065
3589.4263,50.558612
3591.2900,50.940201
3593.1537,50.805892
3595.0173,50.703956
3596.8810,50.821556
3598.7447,50.988269
3600.6084,51.003283
3602.4720,51.126723
3604.3357,51.097386
3606.1994,51.082760
3608.0630,50.755574
3609.9267,50.685814
3611.7904,50.664288
3613.6540,50.778869
3615.5177,50.979188
3617.3814,51.082247
3619.2450,50.781260
3621.1087,50.880735
3622.9724,51.224585
3624.8360,51.475977
3626.6997,51.040999
3628.5634,50.374336
3630.4271,50.117440
3632.2907,50.635458
3634.1544,50.819014
3636.0181,50.972246
3637.8817,51.028889
3639.7454,51.180714
3641.6091,51.364367
3643.4727,51.643652
3645.3364,51.457187
3647.2001,50.820558
3649.0637,50.045088
3650.9274,50.278372
3652.7911,50.836562
3654.6547,51.252899
3656.5184,50.956652
3658.3821,50.943150
3660.2458,51.158969
3662.1094,51.382861
3663.9731,51.502999
3665.8368,51.720193
3667.7004,51.610152
3669.5641,51.178517
3671.4278,50.871915
3673.2914,50.958662
3675.1551,50.621134
3677.0188,50.600149
3678.8824,50.990768
3680.7461,51.421369
3682.6098,51.466845
3684.4735,51.505454
3686.3371,51.349373
3688.2008,50.869338
3690.0645,50.462730
3691.9281,50.761955
3693.7918,51.042162
3695.6555,51.367652
3697.5191,51.364172
3699.3828,51.229935
3701.2465,51.008484
3703.1101,51.256181
3704.9738,51.463444
3706.8375,51.524699
3708.7011,51.174108
3710.5648,50.749594
3712.4285,50.466005
3714.2922,50.924459
3716.1558,51.313083
3718.0195,51.394644
3719.8832,51.285927
3721.7468,51.239219
3723.6105,51.018539
3725.4742,51.097254
3727.3378,51.375198
3729.2015,51.751267
3731.0652,51.410896
3732.9288,51.016737
3734.7925,50.694717
3736.6562,50.728700
3738.5199,51.236562
3740.3835,51.773436
3742.2472,51.631566
3744.1109,50.988130
3745.9745,50.508204
3747.8382,51.001569
3749.7019,50.765792
3751.5655,50.361704
3753.4292,50.398983
3755.2929,50.961650
3757.1565,51.110833
3759.0202,51.078591
3760.8839,50.996043
3762.7475,51.037007
3764.6112,50.910042
3766.4749,50.919484
3768.3386,50.997018
3770.2022,50.872301
3772.0659,50.790719
3773.9296,51.095865
3775.7932,51.178560
3777.6569,51.102384
3779.5206,50.921563
3781.3842,50.997917
3783.2479,50.874315
3785.1116,50.819158
3786.9752,50.938432
3788.8389,51.145773
3790.7026,51.190304
3792.5662,51.383510
3794.4299,51.405424
3796.2936,51.253933
3798.1573,51.047669
3800.0209,50.956230
3801.8846,50.607000
3803.7483,50.827017
3805.6119,50.909208
3807.4756,50.834722
3809.3393,51.038204
3811.2029,51.472877
3813.0666,51.613524
3814.9303,51.460379
3816.7939,50.986945
3818.6576,51.076528
3820.5213,50.794978
3822.3850,50.597250
3824.2486,50.834174
3826.1123,51.112531
3827.9760,51.215226
3829.8396,51.381756
3831.7033,51.315102
3833.5670,51.321897
3835.4306,51.090631
3837.2943,50.845531
3839.1580,50.670320
3841.0216,50.916570
3842.8853,51.099530
3844.7490,51.303034
3846.6126,51.587399
3848.4763,51.848967
3850.3400,51.557123
3852.2037,50.834042
3854.0673,49.959413
3855.9310,50.408445
3857.7947,51.173858
3859.6583,51.571367
3861.5220,51.494899
3863.3857,51.315921
3865.2493,51.092979
3867.1130,51.144997
3868.9767,50.989682
3870.8403,50.819096
3872.7040,50.991513
3874.5677,51.228714
3876.4314,51.251636
3878.2950,51.402280
3880.1587,51.219097
3882.0224,51.131957
3883.8860,51.136105
3885.7497,51.088613
3887.6134,51.086084
3889.4770,51.407093
3891.3407,51.287390
3893.2044,51.272489
3895.0680,51.625882
3896.9317,51.777784
3898.7954,51.376983
3900.6590,50.987247
3902.5227,50.763410
3904.3864,50.727141
3906.2501,50.826678
3908.1137,51.279205
3909.9774,51.440697
3911.8411,51.553584
3913.7047,51.572322
3915.5684,51.521044
3917.4321,51.378899
3919.2957,51.457744
3921.1594,51.437722
3923.0231,51.406526
3924.8867,51.345375
3926.7504,51.422628
3928.6141,51.352081
3930.4777,51.280636
3932.3414,51.200674
3934.2051,51.277490
3936.0688,51.429855
3937.9324,51.607299
3939.7961,51.554904
3941.6598,51.472468
3943.5234,51.402388
3945.3871,51.518820
3947.2508,51.377224
3949.1144,51.287715
3950.9781,51.351613
3952.8418,51.548240
3954.7054,51.554686
3956.5691,51.581745
3958.4328,51.465281
3960.2965,51.503895
3962.1601,51.517720
3964.0238,51.496229
3965.8875,51.484880
3967.7511,51.563678
3969.6148,51.440926
3971.4785,51.471595
3973.3421,51.515721
3975.2058,51.527589
3977.0695,51.560332
3978.9331,51.728545
3980.7968,51.553921
3982.6605,51.557046
3984.5241,51.586334
3986.3878,51.658234
3988.2515,51.653037
3990.1152,51.671818
3991.9788,51.584109
3993.8425,51.557264
3995.7062,51.529047
3997.5698,51.666283
3999.4335,51.708860
