Wavenumber,Intensity
400.6888,97.273236
402.5525,93.958362
404.4162,94.020468
406.2798,93.640287
408.1435,94.339492
410.0072,94.742194
411.8708,94.240683
413.7345,93.219465
415.5982,93.637593
417.4618,94.752566
419.3255,94.890716
421.1892,92.811473
423.0528,93.055012
424.9165,93.661876
426.7802,93.132361
428.6439,93.123501
430.5075,93.453383
432.3712,93.282100
434.2349,93.128203
436.0985,92.991762
437.9622,92.972069
439.8259,92.677325
441.6895,92.420815
443.5532,92.553251
445.4169,92.817735
447.2805,92.807166
449.1442,92.656125
451.0079,92.723463
452.8715,92.947120
454.7352,92.659545
456.5989,92.491809
458.4626,92.782352
460.3262,92.764853
462.1899,92.736545
464.0536,92.956973
465.9172,93.091055
467.7809,92.986316
469.6446,92.690850
471.5082,92.787351
473.3719,92.824905
475.2356,92.804154
477.0992,92.856547
478.9629,92.936458
480.8266,92.864201
482.6902,92.934910
484.5539,93.025425
486.4176,92.962615
488.2813,92.944404
490.1449,93.092666
492.0086,93.265878
493.8723,93.325745
495.7359,93.399457
497.5996,93.517325
499.4633,93.428759
501.3269,93.416334
503.1906,93.390155
505.0543,93.509096
506.9179,93.605126
508.7816,93.516085
510.6453,93.553816
512.5090,93.676580
514.3726,93.650807
516.2363,93.768106
518.1000,93.896701
519.9636,93.907650
521.8273,93.904682
523.6910,93.976328
525.5546,94.068028
527.4183,94.191757
529.2820,94.262868
531.1456,94.376060
533.0093,94.355879
534.8730,94.403153
536.7366,94.563606
538.6003,94.613031
540.4640,94.648426
542.3277,94.783966
544.1913,94.960191
546.0550,95.050241
547.9187,94.989448
549.7823,95.141161
551.6460,95.396746
553.5097,95.554479
555.3733,95.577545
557.2370,95.693778
559.1007,95.825694
560.9643,95.877125
562.8280,95.898550
564.6917,95.937949
566.5554,95.951813
568.4190,95.929946
570.2827,95.866008
572.1464,95.804128
574.0100,95.744077
575.8737,95.681918
577.7374,95.589150
579.6010,95.558218
581.4647,95.507175
583.3284,95.436906
585.1920,95.342973
587.0557,95.265257
588.9194,95.240803
590.7830,95.260426
592.6467,95.226308
594.5104,95.182918
596.3741,95.169642
598.2377,95.213952
600.1014,95.209613
601.9651,95.180353
603.8287,95.144296
605.6924,95.146512
607.5561,95.174358
609.4197,95.160696
611.2834,95.226037
613.1471,95.286028
615.0107,95.301749
616.8744,95.272658
618.7381,95.234651
620.6017,95.253801
622.4654,95.266575
624.3291,95.253734
626.1928,95.295332
628.0564,95.353855
629.9201,95.324413
631.7838,95.287384
633.6474,95.333356
635.5111,95.398975
637.3748,95.380590
639.2384,95.372679
641.1021,95.412707
642.9658,95.414811
644.8294,95.398495
646.6931,95.421585
648.5568,95.422199
650.4205,95.428520
652.2841,95.510197
654.1478,95.539597
656.0115,95.505125
657.8751,95.474215
659.7388,95.463743
661.6025,95.504486
663.4661,95.533210
665.3298,95.567465
667.1935,95.552618
669.0571,95.504466
670.9208,95.543529
672.7845,95.620175
674.6481,95.650335
676.5118,95.682554
678.3755,95.679739
680.2392,95.680322
682.1028,95.699234
683.9665,95.727154
685.8302,95.712712
687.6938,95.720241
689.5575,95.740835
691.4212,95.734956
693.2848,95.709176
695.1485,95.729541
697.0122,95.739013
698.8758,95.730342
700.7395,95.754242
702.6032,95.805447
704.4669,95.836835
706.3305,95.813773
708.1942,95.760383
710.0579,95.738924
711.9215,95.761761
713.7852,95.840321
715.6489,95.902351
717.5125,95.948829
719.3762,95.983972
721.2399,96.006335
723.1035,96.016193
724.9672,96.013254
726.8309,96.006705
728.6945,96.038880
730.5582,96.065481
732.4219,96.057126
734.2856,96.050559
736.1492,96.064557
738.0129,96.125226
739.8766,96.163649
741.7402,96.133317
743.6039,96.127429
745.4676,96.154524
747.3312,96.177153
749.1949,96.205874
751.0586,96.205403
752.9222,96.176058
754.7859,96.176137
756.6496,96.162638
758.5132,96.150960
760.3769,96.151091
762.2406,96.195279
764.1043,96.227370
765.9679,96.235353
767.8316,96.217210
769.6953,96.205770
771.5589,96.217714
773.4226,96.254051
775.2863,96.268955
777.1499,96.232154
779.0136,96.216177
780.8773,96.227937
782.7409,96.266151
784.6046,96.283354
786.4683,96.260280
788.3320,96.217535
790.1956,96.246362
792.0593,96.280535
793.9230,96.270242
795.7866,96.258839
797.6503,96.283556
799.5140,96.303009
801.3776,96.304083
803.2413,96.323197
805.1050,96.317775
806.9686,96.329455
808.8323,96.377402
810.6960,96.360684
812.5596,96.334750
814.4233,96.343305
816.2870,96.342988
818.1507,96.364147
820.0143,96.344148
821.8780,96.336353
823.7417,96.359823
825.6053,96.362241
827.4690,96.349363
829.3327,96.356068
831.1963,96.390371
833.0600,96.421130
834.9237,96.420135
836.7873,96.433218
838.6510,96.423597
840.5147,96.370032
842.3784,96.338687
844.2420,96.354938
846.1057,96.355948
847.9694,96.340005
849.8330,96.339196
851.6967,96.326659
853.5604,96.308369
855.4240,96.312766
857.2877,96.297519
859.1514,96.251359
861.0150,96.245253
862.8787,96.244569
864.7424,96.214224
866.6060,96.188458
868.4697,96.173372
870.3334,96.185627
872.1971,96.199613
874.0607,96.239163
875.9244,96.305659
877.7881,96.357818
879.6517,96.395559
881.5154,96.439428
883.3791,96.506169
885.2427,96.576221
887.1064,96.629041
888.9701,96.678380
890.8337,96.692952
892.6974,96.678542
894.5611,96.664115
896.4247,96.652433
898.2884,96.662465
900.1521,96.670657
902.0158,96.664304
903.8794,96.697516
905.7431,96.721045
907.6068,96.700666
909.4704,96.680022
911.3341,96.675029
913.1978,96.694169
915.0614,96.712203
916.9251,96.716604
918.7888,96.741616
920.6524,96.759697
922.5161,96.740992
924.3798,96.712845
926.2435,96.706110
928.1071,96.716780
929.9708,96.725978
931.8345,96.752417
933.6981,96.772910
935.5618,96.783788
937.4255,96.780696
939.2891,96.763399
941.1528,96.758515
943.0165,96.740164
944.8801,96.739242
946.7438,96.751574
948.6075,96.749553
950.4711,96.728452
952.3348,96.723811
954.1985,96.725819
956.0622,96.719998
957.9258,96.706546
959.7895,96.695686
961.6532,96.672863
963.5168,96.668752
965.3805,96.694122
967.2442,96.690999
969.1078,96.649117
970.9715,96.612939
972.8352,96.624971
974.6988,96.648767
976.5625,96.635143
978.4262,96.636803
980.2899,96.638436
982.1535,96.612986
984.0172,96.600830
985.8809,96.603175
987.7445,96.600217
989.6082,96.606028
991.4719,96.609981
993.3355,96.605661
995.1992,96.614319
997.0629,96.618945
998.9265,96.595856
1000.7902,96.595004
1002.6539,96.610450
1004.5175,96.610188
1006.3812,96.592458
1008.2449,96.587955
1010.1086,96.601079
1011.9722,96.595679
1013.8359,96.603996
1015.6996,96.611050
1017.5632,96.607327
1019.4269,96.617815
1021.2906,96.619233
1023.1542,96.631532
1025.0179,96.646968
1026.8816,96.652651
1028.7452,96.673020
1030.6089,96.692697
1032.4726,96.686409
1034.3362,96.686233
1036.1999,96.695315
1038.0636,96.704528
1039.9273,96.721155
1041.7909,96.731661
1043.6546,96.724478
1045.5183,96.722276
1047.3819,96.712993
1049.2456,96.725525
1051.1093,96.748970
1052.9729,96.739060
1054.8366,96.746929
1056.7003,96.768161
1058.5639,96.776969
1060.4276,96.800127
1062.2913,96.833669
1064.1550,96.853831
1066.0186,96.872934
1067.8823,96.862475
1069.7460,96.852888
1071.6096,96.873643
1073.4733,96.876362
1075.3370,96.859105
1077.2006,96.863152
1079.0643,96.890039
1080.9280,96.907796
1082.7916,96.910827
1084.6553,96.914790
1086.5190,96.917434
1088.3826,96.917645
1090.2463,96.924926
1092.1100,96.930407
1093.9737,96.949787
1095.8373,96.945299
1097.7010,96.923071
1099.5647,96.922585
1101.4283,96.922165
1103.2920,96.934834
1105.1557,96.958696
1107.0193,96.951836
1108.8830,96.955790
1110.7467,96.993655
1112.6103,97.017432
1114.4740,97.016040
1116.3377,97.012031
1118.2014,97.020832
1120.0650,97.048168
1121.9287,97.076760
1123.7924,97.077163
1125.6560,97.052220
1127.5197,97.051256
1129.3834,97.076109
1131.2470,97.079616
1133.1107,97.079101
1134.9744,97.092226
1136.8380,97.108381
1138.7017,97.094209
1140.5654,97.086421
1142.4290,97.105499
1144.2927,97.105024
1146.1564,97.104010
1148.0201,97.136187
1149.8837,97.156077
1151.7474,97.154158
1153.6111,97.156913
1155.4747,97.145989
1157.3384,97.154222
1159.2021,97.164634
1161.0657,97.134075
1162.9294,97.123488
1164.7931,97.152573
1166.6567,97.163281
1168.5204,97.174130
1170.3841,97.203655
1172.2477,97.210336
1174.1114,97.207816
1175.9751,97.216651
1177.8388,97.215597
1179.7024,97.211243
1181.5661,97.233094
1183.4298,97.247917
1185.2934,97.229631
1187.1571,97.214549
1189.0208,97.202285
1190.8844,97.178555
1192.7481,97.164972
1194.6118,97.164694
1196.4754,97.153145
1198.3391,97.160212
1200.2028,97.163309
1202.0665,97.153818
1203.9301,97.163696
1205.7938,97.158561
1207.6575,97.159938
1209.5211,97.165628
1211.3848,97.155237
1213.2485,97.163760
1215.1121,97.176059
1216.9758,97.173406
1218.8395,97.165703
1220.7031,97.180983
1222.5668,97.198944
1224.4305,97.173044
1226.2941,97.139105
1228.1578,97.152259
1230.0215,97.165204
1231.8852,97.154206
1233.7488,97.152908
1235.6125,97.169490
1237.4762,97.185870
1239.3398,97.182615
1241.2035,97.161372
1243.0672,97.152517
1244.9308,97.159763
1246.7945,97.162685
1248.6582,97.144401
1250.5218,97.154829
1252.3855,97.182731
1254.2492,97.185093
1256.1129,97.189460
1257.9765,97.185985
1259.8402,97.170752
1261.7039,97.175400
1263.5675,97.172327
1265.4312,97.157373
1267.2949,97.140800
1269.1585,97.130350
1271.0222,97.146892
1272.8859,97.158789
1274.7495,97.149807
1276.6132,97.146610
1278.4769,97.136627
1280.3405,97.117727
1282.2042,97.098340
1284.0679,97.094615
1285.9316,97.107617
1287.7952,97.107972
1289.6589,97.100344
1291.5226,97.115972
1293.3862,97.122213
1295.2499,97.104691
1297.1136,97.085833
1298.9772,97.074353
1300.8409,97.069827
1302.7046,97.084560
1304.5682,97.078686
1306.4319,97.056417
1308.2956,97.055610
1310.1592,97.062527
1312.0229,97.065486
1313.8866,97.065389
1315.7503,97.072981
1317.6139,97.073024
1319.4776,97.050968
1321.3413,97.073600
1323.2049,97.103665
1325.0686,97.090223
1326.9323,97.058918
1328.7959,97.049414
1330.6596,97.064452
1332.5233,97.062522
1334.3869,97.054793
1336.2506,97.088206
1338.1143,97.112641
1339.9780,97.058440
1341.8416,97.025099
1343.7053,97.059113
1345.5690,97.075429
1347.4326,97.079048
1349.2963,97.089638
1351.1600,97.083829
1353.0236,97.061443
1354.8873,97.045947
1356.7510,97.054474
1358.6146,97.094965
1360.4783,97.147936
1362.3420,97.144520
1364.2056,97.076833
1366.0693,97.070073
1367.9330,97.069572
1369.7967,97.048061
1371.6603,97.075244
1373.5240,97.085764
1375.3877,97.047780
1377.2513,97.093707
1379.1150,97.129746
1380.9787,97.127093
1382.8423,97.122769
1384.7060,97.149831
1386.5697,97.166617
1388.4333,97.100669
1390.2970,97.086651
1392.1607,97.165016
1394.0244,97.225065
1395.8880,97.172822
1397.7517,97.164459
1399.6154,97.135537
1401.4790,97.140241
1403.3427,97.190468
1405.2064,97.162431
1407.0700,97.143610
1408.9337,97.150116
1410.7974,97.148937
1412.6610,97.173079
1414.5247,97.215090
1416.3884,97.292187
1418.2520,97.307661
1420.1157,97.148647
1421.9794,97.178245
1423.8431,97.234452
1425.7067,97.220479
1427.5704,97.284628
1429.4341,97.283762
1431.2977,97.236360
1433.1614,97.295124
1435.0251,97.420955
1436.8887,97.329867
1438.7524,97.242551
1440.6161,97.343928
1442.4797,97.382791
1444.3434,97.385326
1446.2071,97.416231
1448.0707,97.391670
1449.9344,97.347765
1451.7981,97.389929
1453.6618,97.496919
1455.5254,97.667818
1457.3891,97.502698
1459.2528,97.332694
1461.1164,97.401704
1462.9801,97.528185
1464.8438,97.502273
1466.7074,97.427377
1468.5711,97.508032
1470.4348,97.687021
1472.2984,97.684277
1474.1621,97.541980
1476.0258,97.538028
1477.8895,97.527105
1479.7531,97.570778
1481.6168,97.578609
1483.4805,97.579592
1485.3441,97.654063
1487.2078,97.713784
1489.0715,97.723677
1490.9351,97.615493
1492.7988,97.615969
1494.6625,97.755243
1496.5261,97.748439
1498.3898,97.667442
1500.2535,97.645651
1502.1171,97.658275
1503.9808,97.829780
1505.8445,97.992223
1507.7082,97.706962
1509.5718,97.626753
1511.4355,97.713355
1513.2992,97.743336
1515.1628,97.812053
1517.0265,97.778388
1518.8902,97.824644
1520.7538,97.901818
1522.6175,97.745427
1524.4812,97.804380
1526.3448,97.857829
1528.2085,97.802415
1530.0722,97.812836
1531.9359,97.927248
1533.7995,97.856974
1535.6632,97.793942
1537.5269,98.033495
1539.3905,98.127330
1541.2542,97.916767
1543.1179,97.901300
1544.9815,97.894015
1546.8452,97.879120
1548.7089,97.985771
1550.5725,97.992029
1552.4362,98.020651
1554.2999,97.987492
1556.1635,98.058161
1558.0272,98.289295
1559.8909,97.907451
1561.7546,97.850350
1563.6182,98.047294
1565.4819,98.074422
1567.3456,98.128537
1569.2092,98.152076
1571.0729,98.001420
1572.9366,98.069231
1574.8002,98.216068
1576.6639,98.094505
1578.5276,98.002183
1580.3912,98.069337
1582.2549,98.077746
1584.1186,98.098234
1585.9822,98.129939
1587.8459,98.129105
1589.7096,98.111805
1591.5733,98.122835
1593.4369,98.135015
1595.3006,98.152004
1597.1643,98.149626
1599.0279,98.145594
1600.8916,98.158692
1602.7553,98.160646
1604.6189,98.148474
1606.4826,98.171644
1608.3463,98.180918
1610.2099,98.165147
1612.0736,98.173776
1613.9373,98.266332
1615.8010,98.330291
1617.6646,98.162722
1619.5283,98.146147
1621.3920,98.279148
1623.2556,98.243332
1625.1193,98.165749
1626.9830,98.215394
1628.8466,98.186234
1630.7103,98.169538
1632.5740,98.262196
1634.4376,98.400216
1636.3013,98.247788
1638.1650,98.163690
1640.0286,98.232095
1641.8923,98.219824
1643.7560,98.288343
1645.6197,98.408017
1647.4833,98.266916
1649.3470,98.212407
1651.2107,98.484281
1653.0743,98.489447
1654.9380,98.145692
1656.8017,98.216552
1658.6653,98.293510
1660.5290,98.333585
1662.3927,98.327593
1664.2563,98.236347
1666.1200,98.299676
1667.9837,98.459867
1669.8474,98.394838
1671.7110,98.286868
1673.5747,98.408974
1675.4384,98.416872
1677.3020,98.336744
1679.1657,98.423638
1681.0294,98.479059
1682.8930,98.605533
1684.7567,98.444205
1686.6204,98.317922
1688.4840,98.399956
1690.3477,98.373898
1692.2114,98.365897
1694.0750,98.551535
1695.9387,98.545919
1697.8024,98.495170
1699.6661,98.631500
1701.5297,98.351700
1703.3934,98.423810
1705.2571,98.550059
1707.1207,98.492575
1708.9844,98.501129
1710.8481,98.527375
1712.7117,98.551079
1714.5754,98.610949
1716.4391,98.679234
1718.3027,98.556629
1720.1664,98.428069
1722.0301,98.502491
1723.8937,98.522420
1725.7574,98.517029
1727.6211,98.547485
1729.4848,98.556067
1731.3484,98.615314
1733.2121,98.771705
1735.0758,98.557183
1736.9394,98.510665
1738.8031,98.621906
1740.6668,98.550217
1742.5304,98.523762
1744.3941,98.559767
1746.2578,98.614300
1748.1214,98.640116
1749.9851,98.611090
1751.8488,98.517632
1753.7125,98.466055
1755.5761,98.552360
1757.4398,98.540909
1759.3035,98.556318
1761.1671,98.583305
1763.0308,98.517122
1764.8945,98.568330
1766.7581,98.642559
1768.6218,98.625360
1770.4855,98.687856
1772.3491,98.608127
1774.2128,98.464549
1776.0765,98.512401
1777.9401,98.582149
1779.8038,98.634438
1781.6675,98.599859
1783.5312,98.605221
1785.3948,98.577778
1787.2585,98.538641
1789.1222,98.587963
1790.9858,98.680025
1792.8495,98.650654
1794.7132,98.581877
1796.5768,98.583914
1798.4405,98.604910
1800.3042,98.640534
1802.1678,98.636757
1804.0315,98.608247
1805.8952,98.619304
1807.7589,98.641618
1809.6225,98.678740
1811.4862,98.673995
1813.3499,98.629382
1815.2135,98.711101
1817.0772,98.764967
1818.9409,98.715756
1820.8045,98.662301
1822.6682,98.685005
1824.5319,98.723237
1826.3955,98.674478
1828.2592,98.738638
1830.1229,98.718663
1831.9865,98.631127
1833.8502,98.685671
1835.7139,98.702056
1837.5776,98.713561
1839.4412,98.757995
1841.3049,98.806395
1843.1686,98.781855
1845.0322,98.657204
1846.8959,98.677493
1848.7596,98.759360
1850.6232,98.771430
1852.4869,98.756595
1854.3506,98.716887
1856.2142,98.724958
1858.0779,98.689635
1859.9416,98.662678
1861.8052,98.707125
1863.6689,98.732090
1865.5326,98.733994
1867.3963,98.839531
1869.2599,98.882951
1871.1236,98.849670
1872.9873,98.784420
1874.8509,98.748894
1876.7146,98.773833
1878.5783,98.761489
1880.4419,98.776501
1882.3056,98.805078
1884.1693,98.769146
1886.0329,98.862120
1887.8966,98.986635
1889.7603,98.940157
1891.6240,98.799012
1893.4876,98.776197
1895.3513,98.794842
1897.2150,98.749775
1899.0786,98.690960
1900.9423,98.701067
1902.8060,98.796709
1904.6696,98.937300
1906.5333,98.896549
1908.3970,98.771535
1910.2606,98.767775
1912.1243,98.830928
1913.9880,98.851651
1915.8516,98.932222
1917.7153,98.965311
1919.5790,98.936022
1921.4427,99.010220
1923.3063,99.036339
1925.1700,98.930599
1927.0337,98.881069
1928.8973,98.828458
1930.7610,98.829304
1932.6247,98.979801
1934.4883,99.115059
1936.3520,99.086762
1938.2157,99.030052
1940.0793,99.077663
1941.9430,99.061685
1943.8067,98.905253
1945.6704,98.936561
1947.5340,98.989701
1949.3977,99.155458
1951.2614,99.128732
1953.1250,99.069719
1954.9887,99.009247
1956.8524,98.912048
1958.7160,99.042105
1960.5797,99.391440
1962.4434,99.583251
1964.3070,99.360854
1966.1707,99.043687
1968.0344,99.061801
1969.8980,99.050091
1971.7617,99.116877
1973.6254,99.301589
1975.4891,99.368819
1977.3527,99.165250
1979.2164,98.958382
1981.0801,98.908023
1982.9437,98.995318
1984.8074,98.989539
1986.6711,98.872733
1988.5347,98.772501
1990.3984,98.913939
1992.2621,99.016140
1994.1257,99.316540
1995.9894,99.698374
1997.8531,99.463367
1999.7167,99.183193
2001.5804,99.419030
2003.4441,99.440883
2005.3078,99.194176
2007.1714,99.052790
2009.0351,99.061646
2010.8988,98.903068
2012.7624,99.076145
2014.6261,99.441566
2016.4898,99.552929
2018.3534,99.320871
2020.2171,98.880396
2022.0808,99.032880
2023.9444,99.306356
2025.8081,99.223103
2027.6718,99.037921
2029.5355,98.912340
2031.3991,99.133607
2033.2628,99.403036
2035.1265,99.376071
2036.9901,98.760710
2038.8538,98.552856
2040.7175,99.113375
2042.5811,99.423381
2044.4448,99.088440
2046.3085,98.893062
2048.1721,99.023398
2050.0358,99.074614
2051.8995,99.044875
2053.7631,98.865027
2055.6268,98.807486
2057.4905,98.939239
2059.3542,98.934878
2061.2178,98.856839
2063.0815,98.892428
2064.9452,98.954540
2066.8088,98.890681
2068.6725,98.929946
2070.5362,98.884988
2072.3998,98.819266
2074.2635,99.016747
2076.1272,99.067978
2077.9908,98.816513
2079.8545,98.798399
2081.7182,98.970314
2083.5819,99.053241
2085.4455,98.963986
2087.3092,98.820138
2089.1729,98.847594
2091.0365,99.122124
2092.9002,99.305233
2094.7639,99.308082
2096.6275,99.147059
2098.4912,98.924974
2100.3549,98.753550
2102.2185,98.797265
2104.0822,98.967839
2105.9459,99.082660
2107.8095,99.025704
2109.6732,98.839491
2111.5369,98.673905
2113.4006,98.759377
2115.2642,98.924875
2117.1279,99.065984
2118.9916,99.210482
2120.8552,99.147889
2122.7189,98.951976
2124.5826,99.034712
2126.4462,99.185052
2128.3099,99.235282
2130.1736,99.247916
2132.0372,99.108251
2133.9009,99.028302
2135.7646,99.176362
2137.6282,99.211529
2139.4919,99.226699
2141.3556,99.260487
2143.2193,99.351240
2145.0829,99.476620
2146.9466,99.566035
2148.8103,99.343331
2150.6739,99.218017
2152.5376,99.537402
2154.4013,99.913985
2156.2649,99.892601
2158.1286,99.427399
2159.9923,98.720702
2161.8559,98.786419
2163.7196,99.056389
2165.5833,99.064102
2167.4470,99.268144
2169.3106,99.238587
2171.1743,99.181941
2173.0380,99.429168
2174.9016,99.315122
2176.7653,99.195170
2178.6290,98.936219
2180.4926,98.829882
2182.3563,98.864183
2184.2200,98.980164
2186.0836,99.234593
2187.9473,99.378943
2189.8110,99.177195
2191.6746,98.992521
2193.5383,99.038370
2195.4020,99.346366
2197.2657,99.351588
2199.1293,99.097127
2200.9930,99.010098
2202.8567,98.831728
2204.7203,98.711713
2206.5840,98.909902
2208.4477,99.119791
2210.3113,99.095361
2212.1750,99.026828
2214.0387,98.940541
2215.9023,98.892871
2217.7660,98.876640
2219.6297,98.777631
2221.4934,98.752004
2223.3570,98.820092
2225.2207,99.026017
2227.0844,99.307083
2228.9480,99.142161
2230.8117,98.828598
2232.6754,98.703629
2234.5390,98.770140
2236.4027,98.887336
2238.2664,98.844764
2240.1300,98.998984
2241.9937,98.975365
2243.8574,98.756110
2245.7210,98.807284
2247.5847,98.824476
2249.4484,98.664116
2251.3121,98.710561
2253.1757,98.881808
2255.0394,98.913449
2256.9031,98.789564
2258.7667,98.726742
2260.6304,98.740630
2262.4941,98.836373
2264.3577,98.935606
2266.2214,98.869406
2268.0851,98.727907
2269.9487,98.685493
2271.8124,98.804351
2273.6761,98.920623
2275.5397,98.868755
2277.4034,98.865236
2279.2671,98.808216
2281.1308,98.665749
2282.9944,98.652258
2284.8581,98.666833
2286.7218,98.561338
2288.5854,98.570938
2290.4491,98.682384
2292.3128,98.718140
2294.1764,98.679379
2296.0401,98.712140
2297.9038,98.749949
2299.7674,98.747529
2301.6311,98.763009
2303.4948,98.771136
2305.3585,98.703233
2307.2221,98.670721
2309.0858,98.742502
2310.9495,98.775246
2312.8131,98.770539
2314.6768,98.705956
2316.5405,98.651210
2318.4041,98.635235
2320.2678,98.631842
2322.1315,98.650388
2323.9951,98.695826
2325.8588,98.793466
2327.7225,98.870402
2329.5861,98.868389
2331.4498,98.840474
2333.3135,98.889116
2335.1772,98.950870
2337.0408,98.941360
2338.9045,98.843655
2340.7682,98.719525
2342.6318,98.735205
2344.4955,98.831950
2346.3592,98.786531
2348.2228,98.820347
2350.0865,98.925622
2351.9502,98.929580
2353.8138,98.876875
2355.6775,98.876928
2357.5412,98.913270
2359.4049,98.960887
2361.2685,98.938101
2363.1322,98.910302
2364.9959,98.868833
2366.8595,98.735703
2368.7232,98.676997
2370.5869,98.790337
2372.4505,98.854574
2374.3142,98.916333
2376.1779,98.945007
2378.0415,98.917253
2379.9052,98.955392
2381.7689,98.977790
2383.6325,98.891726
2385.4962,98.921727
2387.3599,98.978314
2389.2236,98.942740
2391.0872,98.970443
2392.9509,98.986417
2394.8146,98.941233
2396.6782,98.983165
2398.5419,98.967996
2400.4056,98.870062
2402.2692,98.871378
2404.1329,98.918723
2405.9966,98.893519
2407.8602,98.858630
2409.7239,98.928009
2411.5876,98.972754
2413.4512,98.948189
2415.3149,98.931324
2417.1786,98.956261
2419.0423,99.028225
2420.9059,98.954519
2422.7696,98.950431
2424.6333,99.013294
2426.4969,99.048544
2428.3606,99.023877
2430.2243,98.984068
2432.0879,98.985168
2433.9516,99.011560
2435.8153,98.976047
2437.6789,98.897889
2439.5426,98.890651
2441.4063,98.934882
2443.2700,98.853081
2445.1336,98.876241
2446.9973,98.975812
2448.8610,98.942559
2450.7246,98.941627
2452.5883,98.972261
2454.4520,98.905367
2456.3156,98.935646
2458.1793,99.019293
2460.0430,99.067459
2461.9066,99.050668
2463.7703,98.993548
2465.6340,98.988505
2467.4976,98.958498
2469.3613,98.995379
2471.2250,99.040660
2473.0887,99.006411
2474.9523,98.935617
2476.8160,98.931511
2478.6797,98.949941
2480.5433,99.036125
2482.4070,99.022306
2484.2707,98.917736
2486.1343,99.002455
2487.9980,99.022235
2489.8617,98.888925
2491.7253,98.864840
2493.5890,98.943173
2495.4527,99.000260
2497.3164,99.035829
2499.1800,99.012780
2501.0437,98.945621
2502.9074,98.948527
2504.7710,98.969649
2506.6347,99.003924
2508.4984,99.015096
2510.3620,98.956060
2512.2257,98.913434
2514.0894,98.874573
2515.9530,98.902576
2517.8167,98.956685
2519.6804,98.961140
2521.5440,98.884095
2523.4077,98.872765
2525.2714,98.926771
2527.1351,98.956069
2528.9987,98.909442
2530.8624,98.913619
2532.7261,98.975927
2534.5897,98.998135
2536.4534,98.913394
2538.3171,98.958522
2540.1807,99.070989
2542.0444,99.057448
2543.9081,99.043676
2545.7717,99.019588
2547.6354,98.981666
2549.4991,99.010428
2551.3627,99.008927
2553.2264,98.989966
2555.0901,98.972177
2556.9538,98.972430
2558.8174,98.976497
2560.6811,98.960398
2562.5448,98.943463
2564.4084,98.912665
2566.2721,98.911495
2568.1358,99.050835
2569.9994,99.028008
2571.8631,98.946180
2573.7268,98.946471
2575.5904,99.030217
2577.4541,99.023974
2579.3178,98.897135
2581.1815,98.880723
2583.0451,98.994040
2584.9088,99.000538
2586.7725,98.941966
2588.6361,98.964048
2590.4998,99.035665
2592.3635,99.014158
2594.2271,99.009256
2596.0908,99.010207
2597.9545,98.984399
2599.8181,98.937832
2601.6818,98.892853
2603.5455,98.918973
2605.4091,98.908940
2607.2728,98.853701
2609.1365,98.845173
2611.0002,98.834417
2612.8638,98.841055
2614.7275,98.855500
2616.5912,98.867981
2618.4548,98.914359
2620.3185,98.984012
2622.1822,99.007524
2624.0458,98.992839
2625.9095,98.975917
2627.7732,98.894595
2629.6368,98.860227
2631.5005,98.915801
2633.3642,98.916063
2635.2279,98.916835
2637.0915,98.900739
2638.9552,98.920874
2640.8189,98.905016
2642.6825,98.854233
2644.5462,98.853943
2646.4099,98.889681
2648.2735,98.914909
2650.1372,98.936758
2652.0009,98.938532
2653.8645,98.954280
2655.7282,98.965747
2657.5919,98.937486
2659.4555,98.929867
2661.3192,98.957114
2663.1829,98.982920
2665.0466,99.004637
2666.9102,99.019472
2668.7739,99.009472
2670.6376,99.028608
2672.5012,99.076332
2674.3649,99.085743
2676.2286,99.076559
2678.0922,99.075471
2679.9559,99.028908
2681.8196,98.979137
2683.6832,99.008821
2685.5469,99.034114
2687.4106,99.048771
2689.2742,99.062020
2691.1379,99.018085
2693.0016,98.976070
2694.8653,98.994756
2696.7289,99.019769
2698.5926,99.011664
2700.4563,99.042026
2702.3199,99.039979
2704.1836,98.979742
2706.0473,98.994128
2707.9109,99.042092
2709.7746,99.048048
2711.6383,99.012860
2713.5019,98.987086
2715.3656,98.975769
2717.2293,98.978141
2719.0930,99.054529
2720.9566,99.082204
2722.8203,99.054721
2724.6840,99.032112
2726.5476,99.067022
2728.4113,99.107254
2730.2750,99.103091
2732.1386,99.095196
2734.0023,99.066263
2735.8660,99.096471
2737.7296,99.057222
2739.5933,99.011309
2741.4570,98.996947
2743.3206,98.981482
2745.1843,99.006137
2747.0480,99.011848
2748.9117,99.012550
2750.7753,99.022725
2752.6390,99.040741
2754.5027,99.036138
2756.3663,99.006122
2758.2300,99.020068
2760.0937,99.040755
2761.9573,99.009355
2763.8210,99.062262
2765.6847,99.081797
2767.5483,99.003676
2769.4120,98.968417
2771.2757,98.966301
2773.1394,99.002465
2775.0030,98.991878
2776.8667,98.975802
2778.7304,99.000230
2780.5940,99.044063
2782.4577,99.037605
2784.3214,98.960081
2786.1850,98.963224
2788.0487,99.002851
2789.9124,99.005719
2791.7760,99.065221
2793.6397,99.061640
2795.5034,98.965880
2797.3670,98.948223
2799.2307,99.015067
2801.0944,99.041683
2802.9581,99.072193
2804.8217,99.039595
2806.6854,98.965991
2808.5491,98.887870
2810.4127,98.924126
2812.2764,99.021413
2814.1401,99.025899
2816.0037,98.993240
2817.8674,98.980965
2819.7311,98.960158
2821.5947,98.919752
2823.4584,98.962176
2825.3221,99.101624
2827.1857,99.184916
2829.0494,99.139348
2830.9131,99.011900
2832.7768,98.997423
2834.6404,99.056539
2836.5041,99.022946
2838.3678,98.973912
2840.2314,98.975402
2842.0951,98.968751
2843.9588,99.034260
2845.8224,98.977243
2847.6861,98.944028
2849.5498,98.991672
2851.4134,99.008669
2853.2771,98.974206
2855.1408,98.989884
2857.0045,99.025633
2858.8681,98.994222
2860.7318,98.947162
2862.5955,98.967709
2864.4591,98.974950
2866.3228,98.922776
2868.1865,98.930993
2870.0501,99.024357
2871.9138,99.017528
2873.7775,98.991654
2875.6411,99.056975
2877.5048,99.027376
2879.3685,99.009977
2881.2321,99.030650
2883.0958,99.010514
2884.9595,98.964436
2886.8232,99.010638
2888.6868,99.022414
2890.5505,98.990521
2892.4142,98.922505
2894.2778,98.914612
2896.1415,98.962989
2898.0052,98.993646
2899.8688,98.987622
2901.7325,99.001603
2903.5962,99.062480
2905.4598,99.097941
2907.3235,99.047349
2909.1872,98.962335
2911.0509,98.975880
2912.9145,99.010520
2914.7782,98.963698
2916.6419,98.966365
2918.5055,98.992126
2920.3692,98.990388
2922.2329,99.030100
2924.0965,99.080706
2925.9602,99.074607
2927.8239,99.105107
2929.6875,99.231412
2931.5512,99.180859
2933.4149,99.031383
2935.2785,99.068159
2937.1422,99.125203
2939.0059,99.146063
2940.8696,99.153131
2942.7332,99.112732
2944.5969,99.109063
2946.4606,99.145898
2948.3242,99.120147
2950.1879,99.060292
2952.0516,99.046775
2953.9152,99.036285
2955.7789,99.048868
2957.6426,99.064588
2959.5062,99.063396
2961.3699,99.041593
2963.2336,99.051725
2965.0972,99.098413
2966.9609,99.109497
2968.8246,99.154895
2970.6883,99.163750
2972.5519,99.108876
2974.4156,99.055503
2976.2793,99.047096
2978.1429,99.167482
2980.0066,99.121156
2981.8703,99.066110
2983.7339,99.095608
2985.5976,99.121626
2987.4613,99.145876
2989.3249,99.108049
2991.1886,99.067146
2993.0523,99.018713
2994.9160,99.005290
2996.7796,99.057788
2998.6433,99.106316
3000.5070,99.130180
3002.3706,99.108662
3004.2343,99.104840
3006.0980,99.073969
3007.9616,98.981628
3009.8253,99.001397
3011.6890,99.100298
3013.5526,99.095095
3015.4163,99.074801
3017.2800,99.056651
3019.1436,99.039523
3021.0073,99.033549
3022.8710,99.061540
3024.7347,99.083818
3026.5983,99.112910
3028.4620,99.193770
3030.3257,99.136285
3032.1893,99.057605
3034.0530,99.106001
3035.9167,99.054947
3037.7803,98.980463
3039.6440,98.995730
3041.5077,99.148406
3043.3713,99.180707
3045.2350,99.043562
3047.0987,98.955834
3048.9624,99.014006
3050.8260,99.134780
3052.6897,99.147364
3054.5534,99.116576
3056.4170,99.067221
3058.2807,98.990524
3060.1444,99.049457
3062.0080,99.127336
3063.8717,99.106869
3065.7354,99.022951
3067.5990,98.996471
3069.4627,98.999869
3071.3264,98.981357
3073.1900,99.030753
3075.0537,99.194873
3076.9174,99.223559
3078.7811,99.129801
3080.6447,99.024464
3082.5084,99.055410
3084.3721,99.078589
3086.2357,99.023120
3088.0994,99.081938
3089.9631,99.103278
3091.8267,99.156023
3093.6904,99.171295
3095.5541,99.138897
3097.4177,99.130658
3099.2814,99.064471
3101.1451,98.996339
3103.0087,99.069140
3104.8724,99.076305
3106.7361,99.000098
3108.5998,98.939013
3110.4634,98.951653
3112.3271,99.038403
3114.1908,99.090034
3116.0544,99.039832
3117.9181,99.040487
3119.7818,99.011164
3121.6454,99.075750
3123.5091,99.097045
3125.3728,99.060063
3127.2364,99.145603
3129.1001,99.138459
3130.9638,99.109327
3132.8275,99.112657
3134.6911,99.087756
3136.5548,98.982615
3138.4185,98.957308
3140.2821,99.007472
3142.1458,99.080176
3144.0095,99.029266
3145.8731,98.933848
3147.7368,99.002730
3149.6005,99.095601
3151.4641,99.072856
3153.3278,99.037992
3155.1915,99.081553
3157.0551,99.049066
3158.9188,99.057374
3160.7825,99.013080
3162.6462,99.058681
3164.5098,99.156414
3166.3735,99.123005
3168.2372,99.106991
3170.1008,99.096551
3171.9645,99.036934
3173.8282,98.990579
3175.6918,99.054119
3177.5555,99.133756
3179.4192,99.094231
3181.2828,99.069368
3183.1465,99.042527
3185.0102,99.058290
3186.8739,99.127204
3188.7375,99.101046
3190.6012,98.939927
3192.4649,98.847908
3194.3285,98.923364
3196.1922,99.030216
3198.0559,99.091708
3199.9195,99.134340
3201.7832,99.154955
3203.6469,99.020478
3205.5105,98.975318
3207.3742,99.045564
3209.2379,99.076027
3211.1015,99.012844
3212.9652,99.012919
3214.8289,98.996536
3216.6926,98.977787
3218.5562,99.035472
3220.4199,98.947134
3222.2836,98.964353
3224.1472,99.020743
3226.0109,98.896109
3227.8746,99.006028
3229.7382,99.129678
3231.6019,99.099812
3233.4656,99.065820
3235.3292,99.067357
3237.1929,99.069572
3239.0566,99.134664
3240.9202,99.167987
3242.7839,99.042174
3244.6476,99.012112
3246.5113,98.989562
3248.3749,98.930712
3250.2386,99.039059
3252.1023,99.137005
3253.9659,99.083810
3255.8296,99.097693
3257.6933,99.055382
3259.5569,98.970169
3261.4206,99.114426
3263.2843,99.144318
3265.1479,99.067312
3267.0116,99.146063
3268.8753,99.274425
3270.7390,99.205138
3272.6026,99.093343
3274.4663,99.050741
3276.3300,98.976038
3278.1936,98.955056
3280.0573,99.021821
3281.9210,99.028774
3283.7846,98.963595
3285.6483,98.911704
3287.5120,98.983107
3289.3756,99.077990
3291.2393,99.105153
3293.1030,99.014938
3294.9666,98.987795
3296.8303,99.138336
3298.6940,99.242058
3300.5577,99.115827
3302.4213,99.028298
3304.2850,99.083597
3306.1487,99.048702
3308.0123,99.024449
3309.8760,99.004906
3311.7397,98.946351
3313.6033,99.045609
3315.4670,99.045270
3317.3307,98.964372
3319.1943,99.048573
3321.0580,99.216532
3322.9217,99.160605
3324.7854,99.105152
3326.6490,99.160868
3328.5127,99.127876
3330.3764,99.099382
3332.2400,99.039067
3334.1037,99.020794
3335.9674,99.020539
3337.8310,99.008667
3339.6947,99.189661
3341.5584,99.316919
3343.4220,99.240687
3345.2857,99.217254
3347.1494,99.167513
3349.0130,99.091608
3350.8767,99.019634
3352.7404,99.093255
3354.6041,99.270376
3356.4677,99.216244
3358.3314,99.091584
3360.1951,99.028662
3362.0587,99.064724
3363.9224,99.159074
3365.7861,99.229643
3367.6497,99.254405
3369.5134,99.098598
3371.3771,99.032440
3373.2407,99.078278
3375.1044,99.119274
3376.9681,99.152667
3378.8317,99.160267
3380.6954,99.167222
3382.5591,99.225564
3384.4228,99.172752
3386.2864,99.205514
3388.1501,99.260080
3390.0138,99.193465
3391.8774,99.165817
3393.7411,99.067698
3395.6048,99.041537
3397.4684,99.170660
3399.3321,99.189843
3401.1958,99.211692
3403.0594,99.233719
3404.9231,99.200736
3406.7868,99.177357
3408.6505,99.286615
3410.5141,99.246152
3412.3778,99.181351
3414.2415,99.248908
3416.1051,99.222663
3417.9688,99.238612
3419.8325,99.239512
3421.6961,99.158854
3423.5598,99.042141
3425.4235,98.992626
3427.2871,99.172705
3429.1508,99.189455
3431.0145,99.193010
3432.8781,99.217106
3434.7418,99.107142
3436.6055,99.069033
3438.4692,99.221284
3440.3328,99.300504
3442.1965,99.186243
3444.0602,99.113501
3445.9238,99.225879
3447.7875,99.185002
3449.6512,99.210220
3451.5148,99.443185
3453.3785,99.293441
3455.2422,99.092910
3457.1058,99.119181
3458.9695,99.186387
3460.8332,99.266882
3462.6969,99.414949
3464.5605,99.402101
3466.4242,99.377835
3468.2879,99.378224
3470.1515,99.340941
3472.0152,99.277507
3473.8789,99.263194
3475.7425,99.262075
3477.6062,99.385502
3479.4699,99.360621
3481.3335,99.315868
3483.1972,99.413829
3485.0609,99.438691
3486.9245,99.355862
3488.7882,99.289390
3490.6519,99.356482
3492.5156,99.367844
3494.3792,99.197109
3496.2429,99.175713
3498.1066,99.360306
3499.9702,99.362536
3501.8339,99.369515
3503.6976,99.226425
3505.5612,99.235053
3507.4249,99.408126
3509.2886,99.387441
3511.1522,99.131246
3513.0159,99.081103
3514.8796,99.403187
3516.7432,99.404692
3518.6069,99.307490
3520.4706,99.413105
3522.3343,99.451876
3524.1979,99.405446
3526.0616,99.486718
3527.9253,99.477254
3529.7889,99.441473
3531.6526,99.445709
3533.5163,99.363406
3535.3799,99.345358
3537.2436,99.523557
3539.1073,99.670632
3540.9709,99.603468
3542.8346,99.572240
3544.6983,99.367287
3546.5620,99.310505
3548.4256,99.362886
3550.2893,99.403001
3552.1530,99.398900
3554.0166,99.317526
3555.8803,99.344857
3557.7440,99.352044
3559.6076,99.387086
3561.4713,99.474567
3563.3350,99.602429
3565.1986,99.750341
3567.0623,99.596277
3568.9260,99.407618
3570.7896,99.430538
3572.6533,99.450094
3574.5170,99.468041
3576.3807,99.540372
3578.2443,99.477506
3580.1080,99.316991
3581.9717,99.358633
3583.8353,99.507922
3585.6990,99.626492
3587.5627,99.463264
3589.4263,99.317660
3591.2900,99.327933
3593.1537,99.582933
3595.0173,99.712041
3596.8810,99.503812
3598.7447,99.494179
3600.6084,99.591008
3602.4720,99.504750
3604.3357,99.448847
3606.1994,99.589445
3608.0630,99.521529
3609.9267,99.288137
3611.7904,99.387811
3613.6540,99.517534
3615.5177,99.495467
3617.3814,99.603432
3619.2450,99.513582
3621.1087,99.448583
3622.9724,99.508343
3624.8360,99.647326
3626.6997,99.853548
3628.5634,99.634767
3630.4271,99.254513
3632.2907,99.326297
3634.1544,99.430987
3636.0181,99.396576
3637.8817,99.389226
3639.7454,99.558132
3641.6091,99.674383
3643.4727,99.614971
3645.3364,99.630822
3647.2001,99.666236
3649.0637,99.695222
3650.9274,99.397255
3652.7911,99.198383
3654.6547,99.385972
3656.5184,99.506338
3658.3821,99.530699
3660.2458,99.375709
3662.1094,99.307090
3663.9731,99.501040
3665.8368,99.630749
3667.7004,99.739749
3669.5641,99.785341
3671.4278,99.586229
3673.2914,99.527500
3675.1551,99.524781
3677.0188,99.437131
3678.8824,99.390537
3680.7461,99.521943
3682.6098,99.659193
3684.4735,99.675079
3686.3371,99.554278
3688.2008,99.571962
3690.0645,99.639507
3691.9281,99.447185
3693.7918,99.249862
3695.6555,99.293824
3697.5191,99.431276
3699.3828,99.654528
3701.2465,99.744604
3703.1101,99.658498
3704.9738,99.589142
3706.8375,99.641657
3708.7011,99.651092
3710.5648,99.552858
3712.4285,99.295434
3714.2922,99.354574
3716.1558,99.508912
3718.0195,99.546578
3719.8832,99.634717
3721.7468,99.670592
3723.6105,99.488104
3725.4742,99.494733
3727.3378,99.414887
3729.2015,99.390308
3731.0652,99.599316
3732.9288,99.664085
3734.7925,99.529582
3736.6562,99.421869
3738.5199,99.406675
3740.3835,99.554896
3742.2472,99.715339
3744.1109,99.817889
3745.9745,99.506844
3747.8382,99.482085
3749.7019,99.498398
3751.5655,99.375947
3753.4292,99.218964
3755.2929,99.483068
3757.1565,99.617617
3759.0202,99.448431
3760.8839,99.305276
3762.7475,99.368274
3764.6112,99.465486
3766.4749,99.530557
3768.3386,99.591900
3770.2022,99.498800
3772.0659,99.353867
3773.9296,99.480934
3775.7932,99.565876
3777.6569,99.502218
3779.5206,99.520708
3781.3842,99.484329
3783.2479,99.569422
3785.1116,99.589037
3786.9752,99.565806
3788.8389,99.489323
3790.7026,99.350085
3792.5662,99.396346
3794.4299,99.613234
3796.2936,99.663674
3798.1573,99.683737
3800.0209,99.693538
3801.8846,99.511801
3803.7483,99.243487
3805.6119,99.301946
3807.4756,99.333584
3809.3393,99.328491
3811.2029,99.567806
3813.0666,99.645558
3814.9303,99.539926
3816.7939,99.415966
3818.6576,99.431588
3820.5213,99.623748
3822.3850,99.530226
3824.2486,99.479622
3826.1123,99.519957
3827.9760,99.382982
3829.8396,99.404588
3831.7033,99.530826
3833.5670,99.472337
3835.4306,99.669758
3837.2943,99.812197
3839.1580,99.645127
3841.0216,99.420906
3842.8853,99.444958
3844.7490,99.498606
3846.6126,99.461053
3848.4763,99.612908
3850.3400,99.804299
3852.2037,99.845880
3854.0673,99.521503
3855.9310,99.261345
3857.7947,99.394866
3859.6583,99.586158
3861.5220,99.713073
3863.3857,99.687706
3865.2493,99.590210
3867.1130,99.617024
3868.9767,99.746618
3870.8403,99.602576
3872.7040,99.555438
3874.5677,99.674853
3876.4314,99.511476
3878.2950,99.582007
3880.1587,99.751505
3882.0224,99.560686
3883.8860,99.454720
3885.7497,99.478359
3887.6134,99.501868
3889.4770,99.663685
3891.3407,99.588845
3893.2044,99.402519
3895.0680,99.470304
3896.9317,99.569293
3898.7954,99.607415
3900.6590,99.609160
3902.5227,99.560696
3904.3864,99.553221
3906.2501,99.480277
3908.1137,99.492642
3909.9774,99.577125
3911.8411,99.672542
3913.7047,99.707388
3915.5684,99.660639
3917.4321,99.598396
3919.2957,99.545259
3921.1594,99.560660
3923.0231,99.544264
3924.8867,99.623963
3926.7504,99.596621
3928.6141,99.572167
3930.4777,99.676831
3932.3414,99.619841
3934.2051,99.480260
3936.0688,99.477529
3937.9324,99.611139
3939.7961,99.668121
3941.6598,99.759248
3943.5234,99.688422
3945.3871,99.621959
3947.2508,99.683515
3949.1144,99.623032
3950.9781,99.393741
3952.8418,99.422715
3954.7054,99.698127
3956.5691,99.762267
3958.4328,99.609067
3960.2965,99.532973
3962.1601,99.629353
3964.0238,99.671783
3965.8875,99.597831
3967.7511,99.590158
3969.6148,99.601465
3971.4785,99.634552
3973.3421,99.597874
3975.2058,99.584083
3977.0695,99.522247
3978.9331,99.518220
3980.7968,99.658541
3982.6605,99.624517
3984.5241,99.515494
3986.3878,99.584528
3988.2515,99.651322
3990.1152,99.691471
3991.9788,99.732079
3993.8425,99.780983
3995.7062,99.692533
3997.5698,99.669320
3999.4335,99.629791
